SpectraSuite Data File
++++++++++++++++++++++++++++++++++++
Date: Thu Apr 16 20:04:38 BST 2015
User: mpfc3
Dark Spectrum Present: Yes
Reference Spectrum Present: Yes
Number of Sampled Component Spectra: 1
Spectrometers: USB2E3636
Integration Time (usec): 30000 (USB2E3636)
Spectra Averaged: 100 (USB2E3636)
Boxcar Smoothing: 0 (USB2E3636)
Correct for Electrical Dark: No (USB2E3636)
Strobe/Lamp Enabled: No (USB2E3636)
Correct for Detector Non-linearity: No (USB2E3636)
Correct for Stray Light: No (USB2E3636)
Number of Pixels in Processed Spectrum: 2048
>>>>>Begin Processed Spectral Data<<<<<
180.28	0.000
180.65	408.225
181.02	413.537
181.39	417.480
181.77	414.644
182.14	420.000
182.51	398.425
182.88	362.182
183.25	427.632
183.63	420.417
184.00	407.377
184.37	486.139
184.74	374.319
185.11	402.439
185.49	349.653
185.86	464.286
186.23	356.554
186.60	477.041
186.97	310.778
187.35	400.810
187.72	405.532
188.09	399.585
188.46	358.719
188.83	403.252
189.20	-292.089
189.58	-47.059
189.95	-44.625
190.32	-45.242
190.69	-41.792
191.06	-45.484
191.43	-45.245
191.81	-44.253
192.18	-43.002
192.55	-41.243
192.92	-46.932
193.29	-44.045
193.66	-40.160
194.03	-41.737
194.41	-46.133
194.78	-40.691
195.15	-44.816
195.52	-43.313
195.89	-38.538
196.26	-46.534
196.63	-40.892
197.01	-41.815
197.38	-44.238
197.75	-41.422
198.12	-47.548
198.49	-45.180
198.86	-46.804
199.23	-43.061
199.60	-47.512
199.98	-41.506
200.35	-47.072
200.72	-48.528
201.09	-47.154
201.46	-44.011
201.83	-43.615
202.20	-41.510
202.57	-43.182
202.94	-47.697
203.31	-45.179
203.69	-40.841
204.06	-43.575
204.43	-44.396
204.80	-45.285
205.17	-44.377
205.54	-44.766
205.91	-46.492
206.28	-48.774
206.65	-44.519
207.02	-44.997
207.39	-49.082
207.76	-44.064
208.14	-40.765
208.51	-44.802
208.88	-43.900
209.25	-42.990
209.62	-46.347
209.99	-46.786
210.36	-43.230
210.73	-48.080
211.10	-46.809
211.47	-52.125
211.84	-42.810
212.21	-49.386
212.58	-47.365
212.95	-51.819
213.32	-46.926
213.69	-48.086
214.06	-50.208
214.43	-54.185
214.80	-47.314
215.17	-54.757
215.55	-42.303
215.92	-46.414
216.29	-49.351
216.66	-50.833
217.03	-50.628
217.40	-46.853
217.77	-56.788
218.14	-47.033
218.51	-49.969
218.88	-59.562
219.25	-52.697
219.62	-56.274
219.99	-54.644
220.36	-52.369
220.73	-48.460
221.10	-49.909
221.47	-54.207
221.84	-54.008
222.21	-50.783
222.58	-52.731
222.95	-49.353
223.32	-50.656
223.69	-51.363
224.06	-50.061
224.43	-47.457
224.80	-53.932
225.17	-57.987
225.54	-56.744
225.91	-55.489
226.27	-45.652
226.64	-53.121
227.01	-53.078
227.38	-50.225
227.75	-50.945
228.12	-58.167
228.49	-55.268
228.86	-60.191
229.23	-56.051
229.60	-57.485
229.97	-53.933
230.34	-52.277
230.71	-49.444
231.08	-57.578
231.45	-55.226
231.82	-56.145
232.19	-54.625
232.56	-50.630
232.93	-57.668
233.30	-53.466
233.66	-57.250
234.03	-54.147
234.40	-60.387
234.77	-58.096
235.14	-62.779
235.51	-67.889
235.88	-59.333
236.25	-57.733
236.62	-56.237
236.99	-65.850
237.36	-59.771
237.73	-58.705
238.09	-65.760
238.46	-50.528
238.83	-56.468
239.20	-59.505
239.57	-59.561
239.94	-52.882
240.31	-59.753
240.68	-61.235
241.05	-54.423
241.41	-62.557
241.78	-62.872
242.15	-59.943
242.52	-66.216
242.89	-61.206
243.26	-56.020
243.63	-69.900
244.00	-57.998
244.36	-58.933
244.73	-65.848
245.10	-63.699
245.47	-70.522
245.84	-66.463
246.21	-66.541
246.58	-60.866
246.94	-61.457
247.31	-62.875
247.68	-61.688
248.05	-69.731
248.42	-63.189
248.79	-63.963
249.15	-68.938
249.52	-65.707
249.89	-65.645
250.26	-62.481
250.63	-58.058
251.00	-62.168
251.36	-70.511
251.73	-67.315
252.10	-64.201
252.47	-75.414
252.84	-56.715
253.20	-65.555
253.57	-68.910
253.94	-67.842
254.31	-68.090
254.68	-63.253
255.05	-69.927
255.41	-59.299
255.78	-70.746
256.15	-63.490
256.52	-66.771
256.88	-65.450
257.25	-64.550
257.62	-65.832
257.99	-76.158
258.36	-59.037
258.72	-68.208
259.09	-63.910
259.46	-74.254
259.83	-62.352
260.19	-70.637
260.56	-60.476
260.93	-68.305
261.30	-66.535
261.67	-69.224
262.03	-65.267
262.40	-69.059
262.77	-68.167
263.14	-71.641
263.50	-69.332
263.87	-65.039
264.24	-68.127
264.61	-63.929
264.97	-62.729
265.34	-58.257
265.71	-66.444
266.07	-64.389
266.44	-65.048
266.81	-69.707
267.18	-67.462
267.54	-69.612
267.91	-70.693
268.28	-69.021
268.64	-68.089
269.01	-75.569
269.38	-69.231
269.75	-71.255
270.11	-70.652
270.48	-73.924
270.85	-69.438
271.21	-64.349
271.58	-69.300
271.95	-69.959
272.32	-70.401
272.68	-71.637
273.05	-69.802
273.42	-73.590
273.78	-64.396
274.15	-67.140
274.52	-75.346
274.88	-70.222
275.25	-67.589
275.62	-66.529
275.98	-62.993
276.35	-72.968
276.72	-72.203
277.08	-75.461
277.45	-75.737
277.82	-66.970
278.18	-65.210
278.55	-71.147
278.92	-69.496
279.28	-69.882
279.65	-80.588
280.01	-71.465
280.38	-61.340
280.75	-68.609
281.11	-66.748
281.48	-66.153
281.85	-69.710
282.21	-66.100
282.58	-69.975
282.95	-60.999
283.31	-72.399
283.68	-71.429
284.04	-77.738
284.41	-71.297
284.78	-70.481
285.14	-64.309
285.51	-70.077
285.87	-65.141
286.24	-64.971
286.61	-74.359
286.97	-71.596
287.34	-69.602
287.70	-70.936
288.07	-65.347
288.44	-64.414
288.80	-66.439
289.17	-63.171
289.53	-71.070
289.90	-72.151
290.26	-76.000
290.63	-74.160
291.00	-71.768
291.36	-66.860
291.73	-75.947
292.09	-72.428
292.46	-74.623
292.82	-59.238
293.19	-68.434
293.56	-77.046
293.92	-74.917
294.29	-77.778
294.65	-71.404
295.02	-69.805
295.38	-65.511
295.75	-67.142
296.11	-71.915
296.48	-77.061
296.84	-67.570
297.21	-63.397
297.57	-62.421
297.94	-70.348
298.30	-67.324
298.67	-71.623
299.04	-61.138
299.40	-71.217
299.77	-66.830
300.13	-65.456
300.50	-65.509
300.86	-66.992
301.23	-58.195
301.59	-69.199
301.96	-65.068
302.32	-67.442
302.69	-63.129
303.05	-64.697
303.42	-62.270
303.78	-61.687
304.14	-64.889
304.51	-59.969
304.87	-58.600
305.24	-61.796
305.60	-60.357
305.97	-66.641
306.33	-56.983
306.70	-54.003
307.06	-59.411
307.43	-56.994
307.79	-57.316
308.16	-64.342
308.52	-67.169
308.88	-63.615
309.25	-58.340
309.61	-66.721
309.98	-69.725
310.34	-59.652
310.71	-61.614
311.07	-61.844
311.44	-59.212
311.80	-62.312
312.16	-61.011
312.53	-54.357
312.89	-60.086
313.26	-56.273
313.62	-57.787
313.98	-49.557
314.35	-50.178
314.71	-55.809
315.08	-51.724
315.44	-53.088
315.80	-51.786
316.17	-56.584
316.53	-51.961
316.90	-55.969
317.26	-50.749
317.62	-51.279
317.99	-57.094
318.35	-52.104
318.72	-49.708
319.08	-50.599
319.44	-60.736
319.81	-47.717
320.17	-50.837
320.53	-46.779
320.90	-45.133
321.26	-53.407
321.62	-48.230
321.99	-48.020
322.35	-51.304
322.72	-46.931
323.08	-50.000
323.44	-47.998
323.81	-46.049
324.17	-49.563
324.53	-44.928
324.90	-41.699
325.26	-48.256
325.62	-43.249
325.99	-45.249
326.35	-45.833
326.71	-43.187
327.08	-41.003
327.44	-38.604
327.80	-40.849
328.16	-39.262
328.53	-48.906
328.89	-41.447
329.25	-44.925
329.62	-31.631
329.98	-35.983
330.34	-35.509
330.71	-39.450
331.07	-34.874
331.43	-35.135
331.79	-31.062
332.16	-31.047
332.52	-33.112
332.88	-35.346
333.24	-33.119
333.61	-32.842
333.97	-31.529
334.33	-29.959
334.70	-34.090
335.06	-29.796
335.42	-30.839
335.78	-28.984
336.15	-30.330
336.51	-30.497
336.87	-29.398
337.23	-25.453
337.60	-28.484
337.96	-27.897
338.32	-28.057
338.68	-25.812
339.04	-24.284
339.41	-26.769
339.77	-25.253
340.13	-26.250
340.49	-24.769
340.86	-25.271
341.22	-24.887
341.58	-25.700
341.94	-22.585
342.30	-24.778
342.67	-23.729
343.03	-24.281
343.39	-23.543
343.75	-22.644
344.11	-22.969
344.48	-20.680
344.84	-21.923
345.20	-23.477
345.56	-21.640
345.92	-21.336
346.28	-20.317
346.65	-18.130
347.01	-22.152
347.37	-17.450
347.73	-18.323
348.09	-17.176
348.45	-19.611
348.82	-17.262
349.18	-18.098
349.54	-15.577
349.90	-15.978
350.26	-18.420
350.62	-16.535
350.98	-16.318
351.35	-15.925
351.71	-16.641
352.07	-16.714
352.43	-16.599
352.79	-15.801
353.15	-16.068
353.51	-14.488
353.87	-13.340
354.24	-15.406
354.60	-14.489
354.96	-14.933
355.32	-13.541
355.68	-14.757
356.04	-13.326
356.40	-13.495
356.76	-12.379
357.12	-11.953
357.48	-12.815
357.85	-12.715
358.21	-12.468
358.57	-11.995
358.93	-12.332
359.29	-13.046
359.65	-11.266
360.01	-11.982
360.37	-11.571
360.73	-10.953
361.09	-11.237
361.45	-10.003
361.81	-10.567
362.17	-10.071
362.53	-10.211
362.89	-9.430
363.25	-9.532
363.62	-9.853
363.98	-9.791
364.34	-10.253
364.70	-9.450
365.06	-9.800
365.42	-9.775
365.78	-9.325
366.14	-8.991
366.50	-8.744
366.86	-8.954
367.22	-8.692
367.58	-8.270
367.94	-8.652
368.30	-8.514
368.66	-7.875
369.02	-8.176
369.38	-8.076
369.74	-7.905
370.10	-7.494
370.46	-8.397
370.82	-6.930
371.18	-7.384
371.54	-6.712
371.90	-7.110
372.26	-6.075
372.62	-6.803
372.98	-6.863
373.33	-6.580
373.69	-6.692
374.05	-5.716
374.41	-6.437
374.77	-6.205
375.13	-6.353
375.49	-5.957
375.85	-6.031
376.21	-5.590
376.57	-5.532
376.93	-5.174
377.29	-5.461
377.65	-5.133
378.01	-4.963
378.37	-5.038
378.73	-4.971
379.08	-4.925
379.44	-4.995
379.80	-4.818
380.16	-4.698
380.52	-4.427
380.88	-4.610
381.24	-4.091
381.60	-3.668
381.96	-4.031
382.32	-4.255
382.67	-3.421
383.03	-3.499
383.39	-3.856
383.75	-3.404
384.11	-2.831
384.47	-2.793
384.83	-2.803
385.19	-2.471
385.54	-3.081
385.90	-2.370
386.26	-1.720
386.62	-2.249
386.98	-2.485
387.34	-2.232
387.70	-1.611
388.05	-1.708
388.41	-1.566
388.77	-0.940
389.13	-1.164
389.49	-1.321
389.85	-1.316
390.20	-0.979
390.56	-0.946
390.92	-0.688
391.28	-1.088
391.64	-0.589
391.99	-0.267
392.35	-0.057
392.71	0.039
393.07	-0.055
393.43	0.106
393.78	0.419
394.14	0.633
394.50	1.174
394.86	0.726
395.22	0.873
395.57	0.817
395.93	0.770
396.29	1.600
396.65	1.703
397.00	1.449
397.36	1.599
397.72	1.745
398.08	2.199
398.43	1.862
398.79	2.122
399.15	2.258
399.51	2.370
399.86	2.532
400.22	2.716
400.58	2.872
400.94	2.958
401.29	2.941
401.65	3.131
402.01	3.132
402.37	3.563
402.72	3.615
403.08	3.722
403.44	3.855
403.79	3.847
404.15	4.034
404.51	4.252
404.86	4.250
405.22	4.775
405.58	4.620
405.94	4.875
406.29	4.890
406.65	5.267
407.01	5.156
407.36	5.465
407.72	5.159
408.08	5.375
408.43	5.805
408.79	5.721
409.15	6.016
409.50	5.973
409.86	5.838
410.22	6.228
410.57	6.498
410.93	6.562
411.29	6.774
411.64	6.572
412.00	6.907
412.35	6.846
412.71	7.095
413.07	7.115
413.42	7.318
413.78	7.553
414.14	7.493
414.49	7.785
414.85	7.839
415.20	7.981
415.56	8.126
415.92	8.299
416.27	8.346
416.63	8.392
416.98	8.664
417.34	8.490
417.70	8.964
418.05	8.946
418.41	8.827
418.76	9.061
419.12	9.296
419.47	9.450
419.83	9.317
420.19	9.523
420.54	9.729
420.90	9.758
421.25	9.741
421.61	10.047
421.96	10.096
422.32	10.305
422.67	10.242
423.03	10.472
423.39	10.401
423.74	10.884
424.10	10.729
424.45	10.881
424.81	11.119
425.16	11.056
425.52	11.037
425.87	11.348
426.23	11.358
426.58	11.548
426.94	11.768
427.29	11.885
427.65	11.896
428.00	11.951
428.36	12.134
428.71	12.077
429.07	12.213
429.42	12.372
429.78	12.445
430.13	12.651
430.49	12.698
430.84	12.781
431.19	12.965
431.55	12.891
431.90	13.248
432.26	13.227
432.61	13.372
432.97	13.367
433.32	13.428
433.68	13.565
434.03	13.718
434.39	13.928
434.74	13.794
435.09	14.078
435.45	14.046
435.80	14.147
436.16	14.392
436.51	14.365
436.86	14.422
437.22	14.569
437.57	14.646
437.93	14.736
438.28	14.754
438.63	14.907
438.99	15.001
439.34	15.028
439.70	15.283
440.05	15.203
440.40	15.178
440.76	15.331
441.11	15.429
441.47	15.655
441.82	15.768
442.17	15.851
442.53	15.994
442.88	16.050
443.23	15.986
443.59	16.120
443.94	16.108
444.29	16.310
444.65	16.328
445.00	16.471
445.35	16.578
445.71	16.795
446.06	16.795
446.41	16.862
446.77	16.871
447.12	16.962
447.47	17.079
447.83	17.156
448.18	17.202
448.53	17.351
448.89	17.364
449.24	17.427
449.59	17.527
449.94	17.501
450.30	17.546
450.65	17.826
451.00	17.881
451.36	17.987
451.71	18.000
452.06	18.033
452.41	18.227
452.77	18.132
453.12	18.379
453.47	18.404
453.82	18.618
454.18	18.640
454.53	18.520
454.88	18.918
455.23	18.847
455.59	19.019
455.94	18.901
456.29	19.165
456.64	19.184
457.00	19.281
457.35	19.250
457.70	19.424
458.05	19.452
458.40	19.630
458.76	19.715
459.11	19.893
459.46	19.845
459.81	19.813
460.16	19.987
460.52	20.143
460.87	20.224
461.22	20.213
461.57	20.290
461.92	20.392
462.28	20.546
462.63	20.484
462.98	20.603
463.33	20.728
463.68	20.808
464.03	20.772
464.38	20.900
464.74	20.942
465.09	21.134
465.44	21.134
465.79	21.190
466.14	21.303
466.49	21.339
466.84	21.374
467.20	21.507
467.55	21.450
467.90	21.464
468.25	21.691
468.60	21.703
468.95	21.791
469.30	21.851
469.65	21.863
470.00	22.010
470.36	21.995
470.71	22.069
471.06	22.088
471.41	22.253
471.76	22.188
472.11	22.282
472.46	22.246
472.81	22.358
473.16	22.440
473.51	22.438
473.86	22.356
474.21	22.344
474.56	22.497
474.91	22.598
475.26	22.589
475.62	22.546
475.97	22.614
476.32	22.601
476.67	22.533
477.02	22.704
477.37	22.710
477.72	22.751
478.07	22.660
478.42	22.656
478.77	22.692
479.12	22.757
479.47	22.777
479.82	22.786
480.17	22.778
480.52	22.774
480.87	22.831
481.22	22.781
481.57	22.788
481.92	22.888
482.27	22.836
482.62	22.825
482.97	22.825
483.32	22.839
483.67	22.797
484.02	22.869
484.36	22.939
484.71	22.878
485.06	22.929
485.41	22.975
485.76	22.970
486.11	22.991
486.46	23.083
486.81	23.070
487.16	23.038
487.51	23.095
487.86	23.118
488.21	23.207
488.56	23.347
488.91	23.274
489.25	23.377
489.60	23.452
489.95	23.466
490.30	23.543
490.65	23.581
491.00	23.651
491.35	23.793
491.70	23.841
492.05	23.859
492.39	23.976
492.74	24.036
493.09	24.133
493.44	24.117
493.79	24.187
494.14	24.259
494.49	24.284
494.83	24.361
495.18	24.447
495.53	24.594
495.88	24.601
496.23	24.682
496.58	24.785
496.92	24.836
497.27	24.865
497.62	24.971
497.97	25.058
498.32	25.103
498.67	25.210
499.01	25.224
499.36	25.276
499.71	25.348
500.06	25.391
500.41	25.462
500.75	25.517
501.10	25.600
501.45	25.625
501.80	25.672
502.14	25.829
502.49	25.795
502.84	25.826
503.19	25.912
503.53	25.944
503.88	26.030
504.23	26.024
504.58	26.102
504.92	26.161
505.27	26.263
505.62	26.255
505.97	26.227
506.31	26.291
506.66	26.314
507.01	26.299
507.36	26.393
507.70	26.334
508.05	26.382
508.40	26.358
508.74	26.344
509.09	26.313
509.44	26.380
509.79	26.277
510.13	26.289
510.48	26.328
510.83	26.276
511.17	26.217
511.52	26.208
511.87	26.224
512.21	26.257
512.56	26.256
512.91	26.277
513.25	26.295
513.60	26.343
513.95	26.336
514.29	26.353
514.64	26.415
514.98	26.463
515.33	26.488
515.68	26.520
516.02	26.588
516.37	26.554
516.72	26.619
517.06	26.674
517.41	26.680
517.75	26.764
518.10	26.752
518.45	26.806
518.79	26.849
519.14	26.833
519.48	26.848
519.83	26.898
520.18	26.965
520.52	27.012
520.87	26.894
521.21	27.029
521.56	27.009
521.90	26.987
522.25	27.003
522.60	26.992
522.94	27.054
523.29	27.013
523.63	27.030
523.98	26.996
524.32	26.983
524.67	26.958
525.01	27.002
525.36	26.938
525.70	26.878
526.05	26.926
526.39	26.925
526.74	26.892
527.08	26.855
527.43	26.728
527.77	26.668
528.12	26.633
528.46	26.586
528.81	26.528
529.15	26.501
529.50	26.407
529.84	26.326
530.19	26.279
530.53	26.120
530.88	26.050
531.22	25.971
531.57	25.906
531.91	25.761
532.26	25.622
532.60	25.526
532.94	25.415
533.29	25.248
533.63	25.072
533.98	24.995
534.32	24.856
534.67	24.698
535.01	24.460
535.35	24.313
535.70	24.159
536.04	23.993
536.39	23.793
536.73	23.599
537.07	23.431
537.42	23.297
537.76	23.075
538.11	22.882
538.45	22.700
538.79	22.516
539.14	22.318
539.48	22.158
539.82	21.985
540.17	21.785
540.51	21.650
540.85	21.525
541.20	21.323
541.54	21.172
541.89	21.057
542.23	20.981
542.57	20.834
542.92	20.736
543.26	20.637
543.60	20.607
543.94	20.548
544.29	20.485
544.63	20.432
544.97	20.343
545.32	20.374
545.66	20.333
546.00	20.298
546.35	20.301
546.69	20.324
547.03	20.351
547.37	20.340
547.72	20.351
548.06	20.348
548.40	20.359
548.75	20.466
549.09	20.544
549.43	20.588
549.77	20.662
550.12	20.678
550.46	20.753
550.80	20.869
551.14	20.970
551.49	21.003
551.83	21.229
552.17	21.306
552.51	21.411
552.85	21.554
553.20	21.634
553.54	21.810
553.88	22.049
554.22	22.168
554.56	22.381
554.91	22.561
555.25	22.779
555.59	22.883
555.93	23.144
556.27	23.354
556.62	23.556
556.96	23.801
557.30	23.947
557.64	24.165
557.98	24.392
558.32	24.631
558.67	24.859
559.01	25.095
559.35	25.297
559.69	25.552
560.03	25.706
560.37	25.995
560.71	26.190
561.05	26.364
561.40	26.550
561.74	26.761
562.08	26.926
562.42	27.147
562.76	27.358
563.10	27.511
563.44	27.674
563.78	27.872
564.12	27.980
564.46	28.166
564.81	28.285
565.15	28.388
565.49	28.518
565.83	28.644
566.17	28.727
566.51	28.804
566.85	28.863
567.19	28.998
567.53	29.040
567.87	29.150
568.21	29.234
568.55	29.215
568.89	29.302
569.23	29.326
569.57	29.383
569.91	29.298
570.25	29.329
570.59	29.354
570.93	29.318
571.27	29.341
571.61	29.284
571.95	29.304
572.29	29.194
572.63	29.170
572.97	29.141
573.31	29.006
573.65	28.933
573.99	28.959
574.33	28.752
574.67	28.740
575.01	28.646
575.35	28.552
575.69	28.460
576.03	28.357
576.37	28.235
576.71	28.078
577.05	28.025
577.39	27.916
577.73	27.829
578.06	27.579
578.40	27.508
578.74	27.397
579.08	27.178
579.42	27.067
579.76	26.850
580.10	26.741
580.44	26.545
580.78	26.372
581.12	26.130
581.45	26.033
581.79	25.833
582.13	25.658
582.47	25.574
582.81	25.316
583.15	25.206
583.49	25.022
583.83	24.884
584.16	24.730
584.50	24.594
584.84	24.516
585.18	24.352
585.52	24.229
585.86	24.043
586.19	23.921
586.53	23.839
586.87	23.661
587.21	23.522
587.55	23.398
587.88	23.258
588.22	23.153
588.56	22.926
588.90	22.738
589.24	22.590
589.57	22.441
589.91	22.265
590.25	22.065
590.59	21.895
590.92	21.682
591.26	21.522
591.60	21.280
591.94	21.079
592.27	20.863
592.61	20.628
592.95	20.370
593.29	20.185
593.62	19.913
593.96	19.608
594.30	19.380
594.64	19.078
594.97	18.826
595.31	18.470
595.65	18.085
595.98	17.804
596.32	17.416
596.66	17.064
597.00	16.677
597.33	16.338
597.67	15.903
598.01	15.487
598.34	15.104
598.68	14.721
599.02	14.296
599.35	13.917
599.69	13.523
600.03	13.178
600.36	12.835
600.70	12.566
601.03	12.252
601.37	12.013
601.71	11.732
602.04	11.448
602.38	11.194
602.72	10.926
603.05	10.720
603.39	10.495
603.72	10.231
604.06	10.017
604.40	9.786
604.73	9.560
605.07	9.312
605.40	9.054
605.74	8.837
606.08	8.582
606.41	8.346
606.75	8.101
607.08	7.822
607.42	7.557
607.75	7.359
608.09	7.076
608.42	6.856
608.76	6.606
609.10	6.366
609.43	6.112
609.77	5.890
610.10	5.678
610.44	5.418
610.77	5.189
611.11	4.993
611.44	4.765
611.78	4.539
612.11	4.331
612.45	4.132
612.78	3.954
613.12	3.746
613.45	3.589
613.79	3.407
614.12	3.243
614.46	3.042
614.79	2.916
615.13	2.764
615.46	2.633
615.79	2.485
616.13	2.350
616.46	2.263
616.80	2.159
617.13	2.046
617.47	1.963
617.80	1.885
618.13	1.834
618.47	1.732
618.80	1.662
619.14	1.631
619.47	1.524
619.81	1.482
620.14	1.428
620.47	1.383
620.81	1.324
621.14	1.267
621.47	1.239
621.81	1.163
622.14	1.150
622.48	1.089
622.81	1.090
623.14	1.034
623.48	1.036
623.81	0.971
624.14	0.951
624.48	0.900
624.81	0.915
625.14	0.900
625.48	0.857
625.81	0.893
626.14	0.843
626.48	0.866
626.81	0.858
627.14	0.839
627.48	0.859
627.81	0.879
628.14	0.871
628.47	0.889
628.81	0.885
629.14	0.937
629.47	0.950
629.81	1.006
630.14	1.021
630.47	1.051
630.80	1.089
