SpectraSuite Data File
++++++++++++++++++++++++++++++++++++
Date: Thu Apr 16 19:56:56 BST 2015
User: mpfc3
Dark Spectrum Present: Yes
Reference Spectrum Present: Yes
Number of Sampled Component Spectra: 1
Spectrometers: USB2E3636
Integration Time (usec): 30000 (USB2E3636)
Spectra Averaged: 100 (USB2E3636)
Boxcar Smoothing: 0 (USB2E3636)
Correct for Electrical Dark: No (USB2E3636)
Strobe/Lamp Enabled: No (USB2E3636)
Correct for Detector Non-linearity: No (USB2E3636)
Correct for Stray Light: No (USB2E3636)
Number of Pixels in Processed Spectrum: 2048
>>>>>Begin Processed Spectral Data<<<<<
180.28	0.000
180.65	327.273
181.02	337.555
181.39	307.724
181.77	319.665
182.14	302.857
182.51	295.669
182.88	281.818
183.25	336.842
183.63	315.000
184.00	302.459
184.37	350.990
184.74	295.720
185.11	309.350
185.49	274.653
185.86	339.796
186.23	285.768
186.60	389.286
186.97	241.916
187.35	303.239
187.72	337.447
188.09	319.917
188.46	255.160
188.83	312.602
189.20	-242.405
189.58	-33.769
189.95	-35.386
190.32	-32.028
190.69	-30.150
191.06	-29.717
191.43	-34.250
191.81	-32.331
192.18	-30.876
192.55	-30.865
192.92	-34.107
193.29	-31.062
193.66	-28.298
194.03	-30.368
194.41	-31.318
194.78	-31.301
195.15	-31.996
195.52	-33.572
195.89	-27.050
196.26	-31.448
196.63	-32.886
197.01	-31.983
197.38	-30.530
197.75	-28.060
198.12	-34.656
198.49	-28.487
198.86	-32.351
199.23	-30.244
199.60	-31.711
199.98	-29.487
200.35	-36.165
200.72	-33.918
201.09	-33.259
201.46	-33.930
201.83	-31.872
202.20	-32.137
202.57	-32.522
202.94	-34.888
203.31	-33.829
203.69	-26.616
204.06	-32.849
204.43	-32.253
204.80	-28.402
205.17	-34.339
205.54	-31.843
205.91	-30.690
206.28	-35.026
206.65	-32.276
207.02	-31.329
207.39	-35.821
207.76	-31.695
208.14	-30.710
208.51	-30.282
208.88	-30.585
209.25	-30.504
209.62	-32.363
209.99	-34.627
210.36	-31.465
210.73	-31.691
211.10	-31.501
211.47	-37.544
211.84	-32.965
212.21	-34.640
212.58	-32.386
212.95	-36.374
213.32	-33.411
213.69	-33.792
214.06	-35.015
214.43	-38.767
214.80	-35.244
215.17	-37.114
215.55	-32.812
215.92	-31.662
216.29	-36.423
216.66	-31.726
217.03	-36.521
217.40	-35.431
217.77	-38.432
218.14	-35.229
218.51	-38.424
218.88	-41.726
219.25	-35.462
219.62	-43.662
219.99	-37.850
220.36	-38.653
220.73	-35.430
221.10	-37.024
221.47	-42.646
221.84	-36.450
222.21	-37.633
222.58	-41.873
222.95	-37.193
223.32	-35.478
223.69	-36.145
224.06	-35.460
224.43	-38.089
224.80	-38.204
225.17	-40.519
225.54	-41.349
225.91	-41.983
226.27	-30.764
226.64	-38.089
227.01	-35.645
227.38	-35.985
227.75	-41.694
228.12	-43.094
228.49	-37.309
228.86	-42.331
229.23	-40.365
229.60	-39.721
229.97	-36.880
230.34	-38.614
230.71	-39.438
231.08	-44.209
231.45	-41.879
231.82	-36.870
232.19	-41.019
232.56	-34.638
232.93	-43.650
233.30	-37.543
233.66	-43.022
234.03	-40.391
234.40	-41.261
234.77	-40.584
235.14	-42.909
235.51	-49.401
235.88	-42.938
236.25	-49.252
236.62	-37.491
236.99	-42.687
237.36	-39.871
237.73	-42.590
238.09	-49.509
238.46	-34.835
238.83	-42.442
239.20	-41.515
239.57	-44.901
239.94	-42.795
240.31	-46.846
240.68	-47.991
241.05	-42.463
241.41	-47.882
241.78	-45.149
242.15	-45.708
242.52	-47.138
242.89	-45.048
243.26	-42.033
243.63	-50.885
244.00	-45.034
244.36	-47.220
244.73	-52.060
245.10	-44.513
245.47	-48.353
245.84	-51.795
246.21	-45.544
246.58	-46.733
246.94	-46.737
247.31	-45.811
247.68	-45.258
248.05	-54.913
248.42	-43.070
248.79	-48.362
249.15	-51.426
249.52	-44.844
249.89	-51.101
250.26	-48.613
250.63	-43.453
251.00	-47.309
251.36	-53.460
251.73	-51.176
252.10	-45.636
252.47	-56.291
252.84	-43.066
253.20	-46.703
253.57	-50.193
253.94	-51.518
254.31	-49.637
254.68	-46.208
255.05	-53.219
255.41	-42.759
255.78	-53.241
256.15	-42.198
256.52	-44.984
256.88	-45.419
257.25	-47.428
257.62	-49.758
257.99	-57.976
258.36	-44.199
258.72	-50.446
259.09	-44.822
259.46	-55.243
259.83	-42.305
260.19	-53.102
260.56	-41.596
260.93	-49.877
261.30	-48.461
261.67	-50.825
262.03	-47.577
262.40	-55.198
262.77	-51.343
263.14	-55.977
263.50	-48.228
263.87	-44.574
264.24	-52.960
264.61	-47.907
264.97	-50.838
265.34	-39.220
265.71	-52.170
266.07	-44.855
266.44	-46.019
266.81	-50.814
267.18	-49.489
267.54	-47.481
267.91	-56.672
268.28	-57.532
268.64	-54.778
269.01	-52.485
269.38	-47.954
269.75	-52.727
270.11	-50.920
270.48	-54.262
270.85	-48.655
271.21	-47.962
271.58	-53.333
271.95	-48.963
272.32	-50.204
272.68	-56.812
273.05	-54.443
273.42	-51.111
273.78	-50.365
274.15	-50.000
274.52	-58.564
274.88	-54.949
275.25	-51.685
275.62	-45.485
275.98	-52.467
276.35	-48.839
276.72	-51.661
277.08	-52.931
277.45	-51.811
277.82	-49.421
278.18	-46.764
278.55	-51.712
278.92	-51.597
279.28	-55.330
279.65	-57.346
280.01	-52.956
280.38	-47.296
280.75	-48.876
281.11	-49.510
281.48	-47.565
281.85	-58.532
282.21	-49.191
282.58	-49.958
282.95	-46.011
283.31	-46.980
283.68	-56.044
284.04	-54.751
284.41	-56.067
284.78	-55.141
285.14	-49.589
285.51	-47.059
285.87	-47.871
286.24	-47.623
286.61	-55.128
286.97	-53.634
287.34	-50.720
287.70	-52.463
288.07	-47.277
288.44	-49.104
288.80	-50.299
289.17	-48.919
289.53	-51.839
289.90	-52.271
290.26	-50.583
290.63	-51.938
291.00	-52.770
291.36	-54.930
291.73	-54.009
292.09	-51.602
292.46	-53.183
292.82	-45.057
293.19	-50.758
293.56	-59.164
293.92	-53.156
294.29	-57.760
294.65	-52.456
295.02	-52.757
295.38	-49.393
295.75	-49.288
296.11	-50.468
296.48	-58.154
296.84	-51.228
297.21	-44.418
297.57	-42.880
297.94	-54.348
298.30	-46.567
298.67	-48.598
299.04	-47.115
299.40	-48.684
299.77	-49.550
300.13	-46.986
300.50	-49.545
300.86	-50.569
301.23	-41.013
301.59	-48.611
301.96	-44.764
302.32	-51.246
302.69	-48.102
303.05	-44.050
303.42	-45.324
303.78	-47.833
304.14	-48.726
304.51	-45.016
304.87	-40.868
305.24	-43.151
305.60	-47.634
305.97	-43.374
306.33	-38.536
306.70	-41.163
307.06	-46.398
307.43	-40.476
307.79	-38.135
308.16	-47.544
308.52	-46.788
308.88	-48.540
309.25	-47.982
309.61	-47.145
309.98	-56.047
310.34	-44.512
310.71	-47.360
311.07	-48.569
311.44	-44.725
311.80	-43.769
312.16	-43.741
312.53	-41.286
312.89	-39.986
313.26	-47.068
313.62	-45.051
313.98	-35.310
314.35	-42.491
314.71	-39.843
315.08	-34.414
315.44	-41.638
315.80	-39.080
316.17	-43.274
316.53	-41.432
316.90	-39.747
317.26	-38.624
317.62	-39.279
317.99	-40.791
318.35	-38.945
318.72	-36.794
319.08	-37.792
319.44	-41.472
319.81	-37.299
320.17	-35.907
320.53	-37.461
320.90	-31.122
321.26	-37.937
321.62	-32.394
321.99	-34.186
322.35	-37.599
322.72	-36.402
323.08	-35.510
323.44	-37.621
323.81	-34.053
324.17	-34.187
324.53	-35.014
324.90	-28.351
325.26	-32.209
325.62	-31.922
325.99	-29.896
326.35	-34.817
326.71	-31.374
327.08	-30.818
327.44	-30.390
327.80	-28.834
328.16	-27.561
328.53	-37.846
328.89	-31.576
329.25	-33.278
329.62	-20.881
329.98	-25.939
330.34	-24.352
330.71	-25.984
331.07	-23.856
331.43	-25.561
331.79	-21.329
332.16	-23.691
332.52	-22.975
332.88	-23.360
333.24	-23.534
333.61	-22.907
333.97	-23.074
334.33	-21.143
334.70	-22.575
335.06	-21.866
335.42	-23.080
335.78	-21.484
336.15	-22.718
336.51	-22.455
336.87	-19.126
337.23	-19.326
337.60	-19.472
337.96	-21.722
338.32	-19.715
338.68	-18.715
339.04	-18.414
339.41	-19.275
339.77	-17.094
340.13	-18.953
340.49	-16.634
340.86	-17.341
341.22	-16.246
341.58	-18.109
341.94	-16.092
342.30	-17.364
342.67	-16.565
343.03	-16.847
343.39	-16.463
343.75	-17.285
344.11	-14.847
344.48	-14.193
344.84	-13.837
345.20	-16.350
345.56	-14.325
345.92	-15.495
346.28	-15.582
346.65	-13.183
347.01	-16.352
347.37	-12.425
347.73	-14.332
348.09	-11.354
348.45	-13.747
348.82	-13.234
349.18	-12.207
349.54	-11.525
349.90	-11.685
350.26	-12.609
350.62	-11.527
350.98	-11.605
351.35	-10.134
351.71	-11.564
352.07	-11.524
352.43	-11.266
352.79	-12.469
353.15	-10.476
353.51	-9.672
353.87	-9.870
354.24	-10.737
354.60	-10.394
354.96	-11.079
355.32	-9.224
355.68	-10.730
356.04	-9.054
356.40	-8.961
356.76	-8.896
357.12	-8.485
357.48	-8.590
357.85	-8.494
358.21	-8.500
358.57	-9.265
358.93	-9.892
359.29	-7.994
359.65	-7.901
360.01	-8.882
360.37	-8.222
360.73	-7.695
361.09	-8.153
361.45	-7.355
361.81	-7.000
362.17	-6.296
362.53	-7.360
362.89	-6.925
363.25	-5.979
363.62	-6.101
363.98	-6.997
364.34	-6.749
364.70	-5.990
365.06	-6.896
365.42	-6.415
365.78	-6.053
366.14	-6.594
366.50	-5.953
366.86	-6.200
367.22	-6.237
367.58	-6.334
367.94	-5.922
368.30	-5.386
368.66	-5.396
369.02	-5.091
369.38	-6.063
369.74	-5.747
370.10	-5.669
370.46	-5.432
370.82	-4.697
371.18	-4.594
371.54	-4.649
371.90	-4.852
372.26	-4.372
372.62	-4.307
372.98	-4.433
373.33	-4.349
373.69	-4.575
374.05	-3.488
374.41	-4.752
374.77	-4.181
375.13	-4.207
375.49	-3.228
375.85	-3.669
376.21	-4.027
376.57	-3.255
376.93	-3.925
377.29	-3.626
377.65	-3.095
378.01	-3.430
378.37	-3.210
378.73	-2.301
379.08	-3.008
379.44	-3.166
379.80	-2.842
380.16	-2.795
380.52	-2.794
380.88	-2.464
381.24	-2.640
381.60	-2.372
381.96	-2.294
382.32	-2.094
382.67	-2.071
383.03	-1.452
383.39	-2.602
383.75	-1.539
384.11	-1.326
384.47	-1.273
384.83	-1.454
385.19	-0.954
385.54	-1.341
385.90	-1.126
386.26	-0.657
386.62	-0.585
386.98	-0.682
387.34	-0.910
387.70	-0.173
388.05	-0.786
388.41	-0.157
388.77	0.068
389.13	0.092
389.49	0.210
389.85	-0.055
390.20	-0.018
390.56	0.355
390.92	0.880
391.28	0.447
391.64	1.034
391.99	1.000
392.35	1.046
392.71	1.197
393.07	1.138
393.43	1.213
393.78	1.844
394.14	1.466
394.50	2.470
394.86	1.467
395.22	2.098
395.57	2.032
395.93	2.185
396.29	2.471
396.65	2.627
397.00	2.558
397.36	2.515
397.72	2.575
398.08	2.992
398.43	3.089
398.79	3.041
399.15	3.194
399.51	3.484
399.86	3.588
400.22	3.557
400.58	3.952
400.94	3.952
401.29	4.029
401.65	4.057
402.01	4.456
402.37	4.515
402.72	4.427
403.08	4.740
403.44	4.905
403.79	4.883
404.15	4.814
404.51	5.185
404.86	4.982
405.22	5.514
405.58	5.501
405.94	5.412
406.29	5.837
406.65	6.098
407.01	6.147
407.36	6.182
407.72	6.071
408.08	6.029
408.43	6.655
408.79	6.648
409.15	6.617
409.50	6.754
409.86	6.918
410.22	6.973
410.57	7.189
410.93	7.543
411.29	7.617
411.64	7.238
412.00	7.823
412.35	7.705
412.71	8.035
413.07	7.974
413.42	8.143
413.78	8.362
414.14	8.220
414.49	8.383
414.85	8.589
415.20	8.716
415.56	8.809
415.92	8.869
416.27	8.952
416.63	9.050
416.98	9.330
417.34	9.109
417.70	9.552
418.05	9.508
418.41	9.630
418.76	9.765
419.12	9.951
419.47	10.000
419.83	10.111
420.19	10.318
420.54	10.443
420.90	10.321
421.25	10.555
421.61	10.446
421.96	10.739
422.32	10.875
422.67	10.939
423.03	11.234
423.39	10.935
423.74	11.399
424.10	11.478
424.45	11.451
424.81	11.550
425.16	11.656
425.52	11.768
425.87	11.904
426.23	12.076
426.58	12.103
426.94	12.221
427.29	12.505
427.65	12.379
428.00	12.547
428.36	12.743
428.71	12.611
429.07	12.964
429.42	12.861
429.78	12.953
430.13	13.143
430.49	13.146
430.84	13.298
431.19	13.576
431.55	13.458
431.90	13.617
432.26	13.836
432.61	13.864
432.97	13.780
433.32	13.855
433.68	14.001
434.03	14.147
434.39	14.266
434.74	14.431
435.09	14.627
435.45	14.471
435.80	14.781
436.16	14.748
436.51	14.851
436.86	14.926
437.22	14.976
437.57	15.044
437.93	15.197
438.28	15.211
438.63	15.200
438.99	15.419
439.34	15.480
439.70	15.695
440.05	15.602
440.40	15.713
440.76	15.814
441.11	15.962
441.47	16.083
441.82	16.174
442.17	16.235
442.53	16.309
442.88	16.409
443.23	16.488
443.59	16.577
443.94	16.626
444.29	16.730
444.65	16.884
445.00	16.879
445.35	17.013
445.71	17.062
446.06	17.163
446.41	17.061
446.77	17.311
447.12	17.330
447.47	17.450
447.83	17.503
448.18	17.627
448.53	17.727
448.89	17.818
449.24	17.938
449.59	17.846
449.94	17.927
450.30	17.944
450.65	18.274
451.00	18.282
451.36	18.407
451.71	18.390
452.06	18.497
452.41	18.641
452.77	18.692
453.12	18.698
453.47	18.868
453.82	18.921
454.18	18.986
454.53	19.046
454.88	19.122
455.23	19.202
455.59	19.272
455.94	19.376
456.29	19.535
456.64	19.641
457.00	19.645
457.35	19.614
457.70	19.608
458.05	19.740
458.40	20.030
458.76	20.015
459.11	20.213
459.46	20.230
459.81	20.349
460.16	20.411
460.52	20.495
460.87	20.572
461.22	20.542
461.57	20.614
461.92	20.766
462.28	20.882
462.63	20.928
462.98	20.936
463.33	20.965
463.68	21.176
464.03	21.138
464.38	21.310
464.74	21.219
465.09	21.343
465.44	21.517
465.79	21.490
466.14	21.535
466.49	21.572
466.84	21.640
467.20	21.870
467.55	21.759
467.90	21.909
468.25	21.747
468.60	22.107
468.95	22.099
469.30	22.138
469.65	22.182
470.00	22.312
470.36	22.276
470.71	22.443
471.06	22.313
471.41	22.517
471.76	22.444
472.11	22.607
472.46	22.719
472.81	22.655
473.16	22.693
473.51	22.690
473.86	22.570
474.21	22.709
474.56	22.857
474.91	22.806
475.26	22.842
475.62	22.888
475.97	22.900
476.32	22.927
476.67	22.871
477.02	22.929
477.37	22.953
477.72	22.937
478.07	22.968
478.42	23.039
478.77	23.030
479.12	23.017
479.47	23.058
479.82	23.068
480.17	23.124
480.52	22.995
480.87	23.054
481.22	23.054
481.57	23.003
481.92	23.055
482.27	23.046
482.62	23.092
482.97	23.111
483.32	23.111
483.67	23.128
484.02	23.109
484.36	23.137
484.71	23.187
485.06	23.209
485.41	23.192
485.76	23.260
486.11	23.230
486.46	23.215
486.81	23.306
487.16	23.282
487.51	23.387
487.86	23.419
488.21	23.518
488.56	23.573
488.91	23.577
489.25	23.556
489.60	23.680
489.95	23.691
490.30	23.748
490.65	23.851
491.00	23.905
491.35	24.035
491.70	24.023
492.05	24.084
492.39	24.139
492.74	24.172
493.09	24.226
493.44	24.328
493.79	24.345
494.14	24.489
494.49	24.499
494.83	24.605
495.18	24.717
495.53	24.810
495.88	24.822
496.23	24.946
496.58	25.017
496.92	25.003
497.27	25.058
497.62	25.153
497.97	25.249
498.32	25.320
498.67	25.382
499.01	25.422
499.36	25.460
499.71	25.529
500.06	25.613
500.41	25.658
500.75	25.715
501.10	25.857
501.45	25.815
501.80	25.902
502.14	25.980
502.49	26.049
502.84	26.047
503.19	26.095
503.53	26.207
503.88	26.222
504.23	26.253
504.58	26.260
504.92	26.310
505.27	26.361
505.62	26.407
505.97	26.429
506.31	26.484
506.66	26.484
507.01	26.517
507.36	26.588
507.70	26.548
508.05	26.580
508.40	26.567
508.74	26.566
509.09	26.520
509.44	26.548
509.79	26.476
510.13	26.480
510.48	26.450
510.83	26.432
511.17	26.484
511.52	26.454
511.87	26.363
512.21	26.409
512.56	26.446
512.91	26.415
513.25	26.511
513.60	26.481
513.95	26.434
514.29	26.560
514.64	26.657
514.98	26.601
515.33	26.683
515.68	26.698
516.02	26.808
516.37	26.778
516.72	26.840
517.06	26.847
517.41	26.833
517.75	26.948
518.10	26.971
518.45	26.979
518.79	26.960
519.14	27.078
519.48	27.050
519.83	27.098
520.18	27.088
520.52	27.137
520.87	27.128
521.21	27.123
521.56	27.184
521.90	27.177
522.25	27.184
522.60	27.184
522.94	27.210
523.29	27.165
523.63	27.213
523.98	27.178
524.32	27.157
524.67	27.233
525.01	27.175
525.36	27.099
525.70	27.111
526.05	27.066
526.39	27.030
526.74	27.056
527.08	26.942
527.43	26.871
527.77	26.877
528.12	26.844
528.46	26.735
528.81	26.682
529.15	26.666
529.50	26.608
529.84	26.514
530.19	26.452
530.53	26.309
530.88	26.244
531.22	26.118
531.57	26.074
531.91	25.876
532.26	25.757
532.60	25.739
532.94	25.513
533.29	25.430
533.63	25.298
533.98	25.167
534.32	24.974
534.67	24.805
535.01	24.640
535.35	24.534
535.70	24.285
536.04	24.160
536.39	23.910
536.73	23.803
537.07	23.632
537.42	23.454
537.76	23.210
538.11	23.037
538.45	22.868
538.79	22.640
539.14	22.467
539.48	22.268
539.82	22.059
540.17	21.941
540.51	21.802
540.85	21.660
541.20	21.473
541.54	21.351
541.89	21.213
542.23	21.096
542.57	20.960
542.92	20.882
543.26	20.813
543.60	20.706
543.94	20.687
544.29	20.638
544.63	20.497
544.97	20.516
545.32	20.507
545.66	20.475
546.00	20.454
546.35	20.448
546.69	20.469
547.03	20.484
547.37	20.493
547.72	20.474
548.06	20.522
548.40	20.536
548.75	20.616
549.09	20.660
549.43	20.699
549.77	20.789
550.12	20.826
550.46	20.950
550.80	21.012
551.14	21.079
551.49	21.193
551.83	21.358
552.17	21.424
552.51	21.525
552.85	21.712
553.20	21.854
553.54	21.970
553.88	22.159
554.22	22.306
554.56	22.505
554.91	22.731
555.25	22.875
555.59	23.069
555.93	23.261
556.27	23.415
556.62	23.649
556.96	23.910
557.30	24.087
557.64	24.309
557.98	24.552
558.32	24.809
558.67	25.020
559.01	25.198
559.35	25.368
559.69	25.704
560.03	25.893
560.37	26.160
560.71	26.326
561.05	26.530
561.40	26.750
561.74	26.902
562.08	27.115
562.42	27.287
562.76	27.504
563.10	27.654
563.44	27.833
563.78	27.991
564.12	28.155
564.46	28.337
564.81	28.464
565.15	28.558
565.49	28.669
565.83	28.850
566.17	28.889
566.51	29.019
566.85	29.028
567.19	29.095
567.53	29.217
567.87	29.321
568.21	29.361
568.55	29.342
568.89	29.440
569.23	29.450
569.57	29.479
569.91	29.470
570.25	29.436
570.59	29.466
570.93	29.462
571.27	29.503
571.61	29.448
571.95	29.447
572.29	29.371
572.63	29.283
572.97	29.315
573.31	29.220
573.65	29.118
573.99	29.054
574.33	28.927
574.67	28.892
575.01	28.802
575.35	28.738
575.69	28.597
576.03	28.503
576.37	28.391
576.71	28.363
577.05	28.158
577.39	28.056
577.73	27.901
578.06	27.753
578.40	27.596
578.74	27.506
579.08	27.355
579.42	27.227
579.76	27.009
580.10	26.878
580.44	26.682
580.78	26.496
581.12	26.351
581.45	26.190
581.79	25.956
582.13	25.845
582.47	25.683
582.81	25.457
583.15	25.274
583.49	25.261
583.83	25.034
584.16	24.846
584.50	24.738
584.84	24.628
585.18	24.502
585.52	24.370
585.86	24.236
586.19	24.102
586.53	23.931
586.87	23.784
587.21	23.673
587.55	23.475
587.88	23.425
588.22	23.247
588.56	23.038
588.90	22.896
589.24	22.736
589.57	22.575
589.91	22.380
590.25	22.223
590.59	22.016
590.92	21.869
591.26	21.629
591.60	21.424
591.94	21.234
592.27	21.001
592.61	20.751
592.95	20.561
593.29	20.332
593.62	20.052
593.96	19.794
594.30	19.504
594.64	19.247
594.97	18.927
595.31	18.596
595.65	18.236
595.98	17.925
596.32	17.601
596.66	17.242
597.00	16.789
597.33	16.458
597.67	16.036
598.01	15.628
598.34	15.222
598.68	14.815
599.02	14.414
599.35	14.023
599.69	13.730
600.03	13.309
600.36	12.986
600.70	12.674
601.03	12.353
601.37	12.095
601.71	11.830
602.04	11.567
602.38	11.309
602.72	11.075
603.05	10.877
603.39	10.632
603.72	10.371
604.06	10.124
604.40	9.897
604.73	9.672
605.07	9.409
605.40	9.167
605.74	8.911
606.08	8.705
606.41	8.414
606.75	8.158
607.08	7.951
607.42	7.696
607.75	7.464
608.09	7.191
608.42	6.957
608.76	6.711
609.10	6.452
609.43	6.213
609.77	5.988
610.10	5.759
610.44	5.490
610.77	5.283
611.11	5.063
611.44	4.853
611.78	4.618
612.11	4.450
612.45	4.220
612.78	4.032
613.12	3.829
613.45	3.647
613.79	3.479
614.12	3.285
614.46	3.146
614.79	3.007
615.13	2.831
615.46	2.705
615.79	2.567
616.13	2.439
616.46	2.329
616.80	2.230
617.13	2.135
617.47	2.026
617.80	1.969
618.13	1.902
618.47	1.795
618.80	1.748
619.14	1.692
619.47	1.624
619.81	1.560
620.14	1.501
620.47	1.460
620.81	1.400
621.14	1.343
621.47	1.301
621.81	1.229
622.14	1.216
622.48	1.170
622.81	1.126
623.14	1.110
623.48	1.100
623.81	1.047
624.14	1.051
624.48	0.983
624.81	0.984
625.14	0.965
625.48	0.940
625.81	0.952
626.14	0.918
626.48	0.925
626.81	0.936
627.14	0.930
627.48	0.928
627.81	0.936
628.14	0.942
628.47	0.967
628.81	0.981
629.14	1.015
629.47	1.010
629.81	1.053
630.14	1.085
630.47	1.111
630.80	1.160
631.14	1.209
