SpectraSuite Data File
++++++++++++++++++++++++++++++++++++
Date: Thu Apr 16 20:00:32 BST 2015
User: mpfc3
Dark Spectrum Present: Yes
Reference Spectrum Present: Yes
Number of Sampled Component Spectra: 1
Spectrometers: USB2E3636
Integration Time (usec): 30000 (USB2E3636)
Spectra Averaged: 100 (USB2E3636)
Boxcar Smoothing: 0 (USB2E3636)
Correct for Electrical Dark: No (USB2E3636)
Strobe/Lamp Enabled: No (USB2E3636)
Correct for Detector Non-linearity: No (USB2E3636)
Correct for Stray Light: No (USB2E3636)
Number of Pixels in Processed Spectrum: 2048
>>>>>Begin Processed Spectral Data<<<<<
180.28	0.000
180.65	370.563
181.02	379.476
181.39	354.065
181.77	366.946
182.14	371.429
182.51	362.992
182.88	316.364
183.25	364.035
183.63	377.917
184.00	368.852
184.37	435.149
184.74	348.249
185.11	345.122
185.49	297.569
185.86	411.735
186.23	340.449
186.60	451.020
186.97	270.659
187.35	365.182
187.72	368.936
188.09	373.859
188.46	315.302
188.83	374.390
189.20	-274.684
189.58	-38.889
189.95	-43.449
190.32	-42.197
190.69	-35.461
191.06	-39.658
191.43	-37.713
191.81	-37.433
192.18	-36.378
192.55	-37.730
192.92	-39.801
193.29	-37.607
193.66	-34.255
194.03	-35.684
194.41	-38.072
194.78	-37.938
195.15	-37.124
195.52	-38.360
195.89	-36.710
196.26	-42.707
196.63	-36.969
197.01	-39.060
197.38	-36.264
197.75	-37.573
198.12	-38.292
198.49	-36.887
198.86	-41.134
199.23	-37.129
199.60	-40.405
199.98	-35.470
200.35	-42.365
200.72	-43.148
201.09	-43.806
201.46	-38.808
201.83	-40.530
202.20	-37.547
202.57	-35.552
202.94	-43.202
203.31	-39.945
203.69	-36.422
204.06	-42.458
204.43	-36.648
204.80	-40.655
205.17	-37.411
205.54	-38.059
205.91	-42.099
206.28	-41.586
206.65	-37.507
207.02	-37.397
207.39	-40.700
207.76	-39.371
208.14	-37.213
208.51	-40.113
208.88	-39.610
209.25	-35.761
209.62	-39.726
209.99	-38.796
210.36	-36.626
210.73	-42.006
211.10	-41.076
211.47	-44.215
211.84	-38.606
212.21	-44.997
212.58	-39.491
212.95	-47.168
213.32	-40.661
213.69	-46.292
214.06	-41.721
214.43	-45.123
214.80	-42.728
215.17	-46.755
215.55	-37.963
215.92	-39.359
216.29	-40.260
216.66	-39.405
217.03	-41.602
217.40	-41.958
217.77	-46.845
218.14	-43.572
218.51	-44.533
218.88	-47.585
219.25	-46.125
219.62	-49.424
219.99	-47.837
220.36	-42.207
220.73	-42.490
221.10	-44.586
221.47	-48.298
221.84	-48.410
222.21	-41.891
222.58	-47.919
222.95	-43.790
223.32	-45.971
223.69	-48.320
224.06	-40.429
224.43	-43.300
224.80	-47.182
225.17	-52.143
225.54	-50.886
225.91	-50.299
226.27	-40.843
226.64	-44.395
227.01	-46.727
227.38	-42.207
227.75	-47.818
228.12	-50.664
228.49	-49.105
228.86	-49.966
229.23	-47.397
229.60	-49.235
229.97	-49.570
230.34	-45.809
230.71	-48.921
231.08	-48.709
231.45	-52.472
231.82	-45.601
232.19	-47.989
232.56	-43.530
232.93	-48.716
233.30	-46.877
233.66	-47.924
234.03	-48.955
234.40	-53.438
234.77	-46.977
235.14	-54.212
235.51	-58.308
235.88	-50.035
236.25	-54.170
236.62	-50.740
236.99	-52.561
237.36	-44.810
237.73	-52.230
238.09	-60.242
238.46	-49.331
238.83	-49.491
239.20	-54.698
239.57	-50.283
239.94	-47.622
240.31	-55.693
240.68	-51.190
241.05	-49.398
241.41	-56.051
241.78	-55.386
242.15	-53.004
242.52	-58.744
242.89	-53.388
243.26	-51.262
243.63	-57.660
244.00	-54.435
244.36	-54.781
244.73	-63.629
245.10	-57.866
245.47	-58.394
245.84	-61.115
246.21	-60.045
246.58	-58.055
246.94	-57.056
247.31	-56.572
247.68	-55.639
248.05	-58.320
248.42	-48.733
248.79	-53.588
249.15	-61.331
249.52	-60.751
249.89	-60.770
250.26	-57.704
250.63	-54.317
251.00	-54.511
251.36	-61.203
251.73	-57.502
252.10	-50.814
252.47	-67.136
252.84	-50.146
253.20	-55.469
253.57	-58.933
253.94	-58.409
254.31	-58.340
254.68	-55.199
255.05	-65.118
255.41	-49.085
255.78	-65.397
256.15	-55.803
256.52	-53.840
256.88	-57.065
257.25	-59.244
257.62	-60.743
257.99	-68.268
258.36	-54.775
258.72	-53.204
259.09	-58.501
259.46	-61.466
259.83	-51.066
260.19	-61.290
260.56	-49.808
260.93	-62.080
261.30	-58.800
261.67	-64.191
262.03	-56.624
262.40	-63.614
262.77	-60.900
263.14	-63.314
263.50	-60.841
263.87	-55.736
264.24	-59.367
264.61	-58.293
264.97	-58.978
265.34	-50.076
265.71	-59.766
266.07	-56.350
266.44	-52.866
266.81	-59.446
267.18	-60.903
267.54	-57.721
267.91	-66.216
268.28	-63.234
268.64	-62.457
269.01	-65.965
269.38	-58.265
269.75	-59.481
270.11	-60.368
270.48	-67.679
270.85	-57.131
271.21	-55.396
271.58	-62.634
271.95	-56.929
272.32	-58.299
272.68	-65.467
273.05	-65.401
273.42	-62.137
273.78	-58.232
274.15	-63.043
274.52	-67.301
274.88	-65.358
275.25	-63.526
275.62	-58.658
275.98	-58.306
276.35	-64.594
276.72	-65.997
277.08	-64.154
277.45	-62.932
277.82	-54.801
278.18	-56.149
278.55	-60.959
278.92	-60.420
279.28	-62.521
279.65	-68.923
280.01	-62.896
280.38	-59.080
280.75	-53.622
281.11	-61.601
281.48	-57.224
281.85	-61.433
282.21	-58.657
282.58	-64.676
282.95	-60.435
283.31	-58.893
283.68	-63.652
284.04	-68.507
284.41	-62.929
284.78	-65.423
285.14	-55.757
285.51	-61.637
285.87	-56.225
286.24	-59.133
286.61	-69.145
286.97	-61.404
287.34	-65.707
287.70	-62.315
288.07	-57.426
288.44	-61.238
288.80	-61.486
289.17	-55.564
289.53	-65.134
289.90	-64.267
290.26	-64.583
290.63	-65.375
291.00	-66.667
291.36	-66.197
291.73	-61.674
292.09	-61.383
292.46	-59.548
292.82	-55.186
293.19	-58.670
293.56	-63.256
293.92	-67.359
294.29	-62.169
294.65	-67.456
295.02	-62.680
295.38	-62.392
295.75	-58.089
296.11	-62.638
296.48	-71.864
296.84	-59.780
297.21	-54.944
297.57	-52.294
297.94	-60.783
298.30	-58.800
298.67	-62.702
299.04	-55.208
299.40	-59.622
299.77	-56.921
300.13	-55.719
300.50	-58.478
300.86	-57.886
301.23	-51.623
301.59	-61.520
301.96	-59.792
302.32	-64.950
302.69	-54.376
303.05	-56.895
303.42	-56.675
303.78	-52.786
304.14	-62.182
304.51	-54.128
304.87	-48.782
305.24	-53.044
305.60	-56.090
305.97	-51.849
306.33	-50.709
306.70	-50.755
307.06	-56.468
307.43	-50.074
307.79	-50.948
308.16	-59.984
308.52	-59.239
308.88	-56.748
309.25	-52.932
309.61	-58.157
309.98	-65.304
310.34	-47.767
310.71	-52.564
311.07	-57.313
311.44	-50.223
311.80	-49.625
312.16	-51.131
312.53	-45.929
312.89	-44.380
313.26	-52.190
313.62	-55.677
313.98	-46.012
314.35	-49.110
314.71	-46.401
315.08	-50.000
315.44	-52.949
315.80	-46.223
316.17	-52.242
316.53	-47.970
316.90	-48.104
317.26	-44.687
317.62	-44.000
317.99	-48.363
318.35	-46.493
318.72	-41.986
319.08	-43.091
319.44	-48.294
319.81	-47.846
320.17	-46.911
320.53	-42.214
320.90	-38.996
321.26	-43.708
321.62	-42.112
321.99	-42.535
322.35	-45.482
322.72	-41.877
323.08	-41.853
323.44	-41.687
323.81	-39.227
324.17	-44.750
324.53	-40.696
324.90	-35.025
325.26	-36.512
325.62	-41.648
325.99	-39.224
326.35	-39.441
326.71	-39.341
327.08	-33.509
327.44	-33.419
327.80	-33.947
328.16	-34.685
328.53	-43.203
328.89	-35.838
329.25	-39.989
329.62	-26.318
329.98	-30.262
330.34	-30.370
330.71	-30.583
331.07	-32.820
331.43	-30.738
331.79	-26.576
332.16	-26.185
332.52	-27.933
332.88	-27.428
333.24	-28.070
333.61	-28.980
333.97	-26.697
334.33	-25.510
334.70	-27.033
335.06	-25.030
335.42	-25.798
335.78	-26.055
336.15	-27.301
336.51	-24.981
336.87	-25.067
337.23	-23.568
337.60	-24.358
337.96	-26.335
338.32	-25.241
338.68	-22.140
339.04	-24.214
339.41	-24.224
339.77	-21.005
340.13	-23.581
340.49	-20.205
340.86	-20.500
341.22	-20.939
341.58	-23.384
341.94	-18.546
342.30	-20.311
342.67	-20.423
343.03	-21.103
343.39	-19.062
343.75	-20.112
344.11	-17.409
344.48	-19.065
344.84	-18.366
345.20	-19.843
345.56	-17.068
345.92	-19.335
346.28	-18.466
346.65	-16.032
347.01	-19.081
347.37	-15.875
347.73	-15.663
348.09	-14.968
348.45	-17.591
348.82	-14.289
349.18	-15.377
349.54	-14.289
349.90	-13.843
350.26	-13.780
350.62	-13.760
350.98	-14.984
351.35	-14.153
351.71	-12.910
352.07	-13.730
352.43	-13.129
352.79	-13.810
353.15	-13.648
353.51	-11.392
353.87	-11.147
354.24	-13.515
354.60	-13.729
354.96	-13.287
355.32	-11.373
355.68	-11.760
356.04	-11.227
356.40	-11.609
356.76	-10.968
357.12	-10.139
357.48	-11.072
357.85	-10.613
358.21	-11.066
358.57	-10.967
358.93	-11.171
359.29	-11.700
359.65	-9.647
360.01	-10.569
360.37	-9.635
360.73	-9.727
361.09	-9.542
361.45	-9.004
361.81	-9.597
362.17	-7.900
362.53	-8.916
362.89	-8.033
363.25	-8.474
363.62	-8.185
363.98	-8.771
364.34	-7.184
364.70	-7.507
365.06	-8.146
365.42	-8.611
365.78	-7.669
366.14	-8.200
366.50	-7.725
366.86	-7.923
367.22	-7.327
367.58	-7.253
367.94	-7.220
368.30	-7.117
368.66	-6.576
369.02	-6.703
369.38	-6.965
369.74	-6.417
370.10	-7.268
370.46	-6.520
370.82	-6.525
371.18	-6.716
371.54	-6.242
371.90	-5.369
372.26	-5.306
372.62	-5.361
372.98	-5.399
373.33	-5.918
373.69	-6.391
374.05	-4.963
374.41	-5.653
374.77	-5.326
375.13	-5.337
375.49	-5.053
375.85	-4.378
376.21	-5.190
376.57	-4.645
376.93	-4.594
377.29	-3.978
377.65	-3.971
378.01	-4.374
378.37	-4.255
378.73	-3.300
379.08	-4.167
379.44	-4.019
379.80	-3.593
380.16	-3.947
380.52	-3.563
380.88	-3.913
381.24	-3.600
381.60	-3.028
381.96	-2.835
382.32	-3.141
382.67	-2.887
383.03	-2.457
383.39	-2.829
383.75	-2.406
384.11	-1.963
384.47	-1.845
384.83	-1.940
385.19	-2.025
385.54	-2.090
385.90	-1.930
386.26	-1.741
386.62	-1.257
386.98	-1.488
387.34	-1.152
387.70	-1.040
388.05	-1.305
388.41	-0.692
388.77	-0.740
389.13	-0.370
389.49	-0.321
389.85	-0.469
390.20	-0.535
390.56	0.160
390.92	-0.385
391.28	-0.065
391.64	0.194
391.99	0.563
392.35	0.600
392.71	0.668
393.07	0.599
393.43	0.395
393.78	1.083
394.14	1.009
394.50	1.564
394.86	1.254
395.22	1.441
395.57	1.351
395.93	1.665
396.29	1.862
396.65	1.873
397.00	1.774
397.36	1.971
397.72	2.249
398.08	2.632
398.43	2.598
398.79	2.696
399.15	2.887
399.51	2.916
399.86	2.935
400.22	3.132
400.58	3.194
400.94	3.372
401.29	3.759
401.65	3.566
402.01	3.750
402.37	4.072
402.72	3.966
403.08	4.060
403.44	4.468
403.79	4.417
404.15	4.490
404.51	4.930
404.86	4.616
405.22	5.258
405.58	5.124
405.94	4.993
406.29	5.375
406.65	5.781
407.01	5.535
407.36	5.850
407.72	5.594
408.08	5.683
408.43	6.210
408.79	6.205
409.15	6.373
409.50	6.347
409.86	6.186
410.22	6.726
410.57	6.622
410.93	6.902
411.29	7.049
411.64	6.840
412.00	7.196
412.35	7.286
412.71	7.414
413.07	7.487
413.42	7.774
413.78	7.899
414.14	7.829
414.49	8.022
414.85	8.011
415.20	8.301
415.56	8.420
415.92	8.286
416.27	8.736
416.63	8.780
416.98	8.958
417.34	8.991
417.70	9.063
418.05	9.218
418.41	9.310
418.76	9.373
419.12	9.518
419.47	9.671
419.83	9.685
420.19	9.915
420.54	10.076
420.90	10.038
421.25	10.116
421.61	10.253
421.96	10.542
422.32	10.433
422.67	10.774
423.03	10.890
423.39	10.695
423.74	11.071
424.10	10.772
424.45	11.142
424.81	11.424
425.16	11.290
425.52	11.529
425.87	11.717
426.23	11.794
426.58	11.758
426.94	11.959
427.29	12.185
427.65	12.209
428.00	12.076
428.36	12.377
428.71	12.280
429.07	12.537
429.42	12.541
429.78	12.798
430.13	12.900
430.49	12.658
430.84	12.874
431.19	13.282
431.55	13.192
431.90	13.437
432.26	13.482
432.61	13.582
432.97	13.681
433.32	13.820
433.68	13.796
434.03	14.002
434.39	14.167
434.74	14.053
435.09	14.193
435.45	14.282
435.80	14.364
436.16	14.597
436.51	14.668
436.86	14.614
437.22	14.860
437.57	14.881
437.93	14.971
438.28	14.962
438.63	15.008
438.99	15.238
439.34	15.275
439.70	15.312
440.05	15.402
440.40	15.405
440.76	15.662
441.11	15.648
441.47	15.800
441.82	15.877
442.17	15.873
442.53	15.940
442.88	16.302
443.23	16.198
443.59	16.454
443.94	16.440
444.29	16.539
444.65	16.622
445.00	16.705
445.35	16.757
445.71	16.743
446.06	16.899
446.41	16.895
446.77	16.941
447.12	17.182
447.47	17.303
447.83	17.390
448.18	17.297
448.53	17.564
448.89	17.503
449.24	17.546
449.59	17.683
449.94	17.757
450.30	17.695
450.65	18.023
451.00	18.022
451.36	18.202
451.71	18.247
452.06	18.220
452.41	18.422
452.77	18.471
453.12	18.649
453.47	18.706
453.82	18.773
454.18	18.798
454.53	18.786
454.88	19.073
455.23	19.014
455.59	19.079
455.94	19.104
456.29	19.289
456.64	19.312
457.00	19.325
457.35	19.402
457.70	19.600
458.05	19.684
458.40	19.834
458.76	19.892
459.11	19.946
459.46	19.999
459.81	20.021
460.16	20.225
460.52	20.254
460.87	20.415
461.22	20.380
461.57	20.357
461.92	20.513
462.28	20.634
462.63	20.738
462.98	20.714
463.33	20.841
463.68	20.898
464.03	20.938
464.38	21.061
464.74	20.963
465.09	21.213
465.44	21.234
465.79	21.318
466.14	21.393
466.49	21.511
466.84	21.445
467.20	21.559
467.55	21.633
467.90	21.732
468.25	21.583
468.60	21.861
468.95	21.925
469.30	21.941
469.65	22.015
470.00	22.015
470.36	22.086
470.71	22.257
471.06	22.173
471.41	22.402
471.76	22.142
472.11	22.459
472.46	22.387
472.81	22.451
473.16	22.543
473.51	22.638
473.86	22.463
474.21	22.558
474.56	22.682
474.91	22.677
475.26	22.726
475.62	22.617
475.97	22.697
476.32	22.755
476.67	22.824
477.02	22.747
477.37	22.813
477.72	22.825
478.07	22.772
478.42	22.785
478.77	22.856
479.12	22.883
479.47	22.874
479.82	22.921
480.17	22.892
480.52	22.900
480.87	22.877
481.22	22.926
481.57	22.855
481.92	22.954
482.27	22.929
482.62	22.935
482.97	23.013
483.32	23.020
483.67	22.871
484.02	22.951
484.36	23.014
484.71	22.976
485.06	22.990
485.41	22.992
485.76	23.099
486.11	23.101
486.46	23.129
486.81	23.127
487.16	23.227
487.51	23.183
487.86	23.281
488.21	23.369
488.56	23.438
488.91	23.314
489.25	23.406
489.60	23.615
489.95	23.589
490.30	23.629
490.65	23.672
491.00	23.818
491.35	23.914
491.70	23.854
492.05	23.935
492.39	24.111
492.74	24.119
493.09	24.163
493.44	24.180
493.79	24.294
494.14	24.381
494.49	24.375
494.83	24.519
495.18	24.611
495.53	24.688
495.88	24.678
496.23	24.806
496.58	24.856
496.92	24.935
497.27	25.002
497.62	25.073
497.97	25.139
498.32	25.156
498.67	25.255
499.01	25.252
499.36	25.335
499.71	25.447
500.06	25.496
500.41	25.581
500.75	25.631
501.10	25.720
501.45	25.742
501.80	25.780
502.14	25.886
502.49	25.894
502.84	25.956
503.19	26.021
503.53	26.047
503.88	26.073
504.23	26.119
504.58	26.171
504.92	26.250
505.27	26.290
505.62	26.259
505.97	26.296
506.31	26.369
506.66	26.401
507.01	26.473
507.36	26.446
507.70	26.482
508.05	26.390
508.40	26.460
508.74	26.428
509.09	26.401
509.44	26.415
509.79	26.337
510.13	26.415
510.48	26.407
510.83	26.314
511.17	26.316
511.52	26.341
511.87	26.296
512.21	26.340
512.56	26.339
512.91	26.332
513.25	26.344
513.60	26.314
513.95	26.407
514.29	26.409
514.64	26.474
514.98	26.501
515.33	26.589
515.68	26.593
516.02	26.642
516.37	26.589
516.72	26.688
517.06	26.741
517.41	26.755
517.75	26.771
518.10	26.870
518.45	26.903
518.79	26.873
519.14	26.893
519.48	26.986
519.83	26.946
520.18	27.012
520.52	27.026
520.87	26.951
521.21	27.003
521.56	27.094
521.90	27.044
522.25	27.118
522.60	27.045
522.94	27.129
523.29	27.067
523.63	27.089
523.98	27.124
524.32	27.079
524.67	27.115
525.01	27.108
525.36	26.990
525.70	26.993
526.05	27.000
526.39	26.870
526.74	26.917
527.08	26.848
527.43	26.718
527.77	26.739
528.12	26.707
528.46	26.639
528.81	26.571
529.15	26.557
529.50	26.459
529.84	26.377
530.19	26.345
530.53	26.194
530.88	26.160
531.22	26.022
531.57	25.931
531.91	25.803
532.26	25.716
532.60	25.613
532.94	25.402
533.29	25.314
533.63	25.218
533.98	25.043
534.32	24.866
534.67	24.685
535.01	24.540
535.35	24.365
535.70	24.245
536.04	24.033
536.39	23.892
536.73	23.669
537.07	23.515
537.42	23.272
537.76	23.173
538.11	22.935
538.45	22.752
538.79	22.636
539.14	22.351
539.48	22.243
539.82	22.010
540.17	21.840
540.51	21.655
540.85	21.584
541.20	21.383
541.54	21.261
541.89	21.117
542.23	20.995
542.57	20.885
542.92	20.815
543.26	20.734
543.60	20.625
543.94	20.579
544.29	20.526
544.63	20.440
544.97	20.377
545.32	20.453
545.66	20.391
546.00	20.349
546.35	20.362
546.69	20.357
547.03	20.368
547.37	20.360
547.72	20.383
548.06	20.438
548.40	20.455
548.75	20.536
549.09	20.595
549.43	20.619
549.77	20.746
550.12	20.745
550.46	20.862
550.80	20.964
551.14	20.970
551.49	21.130
551.83	21.259
552.17	21.404
552.51	21.472
552.85	21.625
553.20	21.734
553.54	21.900
553.88	22.032
554.22	22.196
554.56	22.456
554.91	22.626
555.25	22.779
555.59	22.944
555.93	23.171
556.27	23.405
556.62	23.623
556.96	23.890
557.30	24.030
557.64	24.241
557.98	24.528
558.32	24.690
558.67	24.930
559.01	25.134
559.35	25.345
559.69	25.571
560.03	25.802
560.37	26.013
560.71	26.254
561.05	26.471
561.40	26.654
561.74	26.857
562.08	27.025
562.42	27.206
562.76	27.376
563.10	27.558
563.44	27.756
563.78	27.908
564.12	28.061
564.46	28.270
564.81	28.339
565.15	28.487
565.49	28.556
565.83	28.702
566.17	28.796
566.51	28.935
566.85	28.957
567.19	29.038
567.53	29.121
567.87	29.183
568.21	29.270
568.55	29.273
568.89	29.351
569.23	29.319
569.57	29.404
569.91	29.365
570.25	29.346
570.59	29.453
570.93	29.361
571.27	29.408
571.61	29.325
571.95	29.324
572.29	29.273
572.63	29.228
572.97	29.211
573.31	29.077
573.65	29.029
573.99	28.966
574.33	28.861
574.67	28.836
575.01	28.655
575.35	28.583
575.69	28.551
576.03	28.485
576.37	28.307
576.71	28.205
577.05	28.070
577.39	27.979
577.73	27.824
578.06	27.750
578.40	27.562
578.74	27.411
579.08	27.274
579.42	27.104
579.76	26.913
580.10	26.772
580.44	26.550
580.78	26.397
581.12	26.231
581.45	26.079
581.79	25.901
582.13	25.711
582.47	25.553
582.81	25.437
583.15	25.195
583.49	25.089
583.83	24.967
584.16	24.717
584.50	24.649
584.84	24.549
585.18	24.412
585.52	24.312
585.86	24.174
586.19	23.998
586.53	23.899
586.87	23.775
587.21	23.571
587.55	23.390
587.88	23.291
588.22	23.184
588.56	22.992
588.90	22.820
589.24	22.653
589.57	22.474
589.91	22.307
590.25	22.140
590.59	21.885
590.92	21.772
591.26	21.589
591.60	21.314
591.94	21.160
592.27	20.921
592.61	20.690
592.95	20.461
593.29	20.209
593.62	19.970
593.96	19.678
594.30	19.426
594.64	19.134
594.97	18.835
595.31	18.518
595.65	18.183
595.98	17.788
596.32	17.464
596.66	17.119
597.00	16.712
597.33	16.357
597.67	15.928
598.01	15.513
598.34	15.121
598.68	14.714
599.02	14.314
599.35	13.956
599.69	13.609
600.03	13.240
600.36	12.906
600.70	12.632
601.03	12.273
601.37	12.027
601.71	11.773
602.04	11.487
602.38	11.246
602.72	10.958
603.05	10.802
603.39	10.521
603.72	10.262
604.06	10.070
604.40	9.845
604.73	9.577
605.07	9.360
605.40	9.077
605.74	8.893
606.08	8.615
606.41	8.349
606.75	8.134
607.08	7.880
607.42	7.603
607.75	7.390
608.09	7.134
608.42	6.898
608.76	6.635
609.10	6.409
609.43	6.170
609.77	5.903
610.10	5.702
610.44	5.461
610.77	5.238
611.11	5.008
611.44	4.798
611.78	4.571
612.11	4.386
612.45	4.175
612.78	3.963
613.12	3.796
613.45	3.608
613.79	3.418
614.12	3.254
614.46	3.083
614.79	2.940
615.13	2.806
615.46	2.646
615.79	2.515
616.13	2.387
616.46	2.278
616.80	2.192
617.13	2.103
617.47	2.008
617.80	1.919
618.13	1.847
618.47	1.764
618.80	1.708
619.14	1.635
619.47	1.562
619.81	1.519
620.14	1.447
620.47	1.421
620.81	1.366
621.14	1.317
621.47	1.270
621.81	1.189
622.14	1.167
622.48	1.142
622.81	1.104
623.14	1.088
623.48	1.045
623.81	1.024
624.14	0.981
624.48	0.955
624.81	0.960
625.14	0.919
625.48	0.900
625.81	0.894
626.14	0.893
626.48	0.883
626.81	0.923
627.14	0.870
627.48	0.886
627.81	0.914
628.14	0.921
628.47	0.940
628.81	0.935
629.14	0.976
629.47	0.967
629.81	1.027
630.14	1.051
630.47	1.086
630.80	1.120
