SpectraSuite Data File
++++++++++++++++++++++++++++++++++++
Date: Thu Apr 16 20:01:33 BST 2015
User: mpfc3
Dark Spectrum Present: Yes
Reference Spectrum Present: Yes
Number of Sampled Component Spectra: 1
Spectrometers: USB2E3636
Integration Time (usec): 30000 (USB2E3636)
Spectra Averaged: 100 (USB2E3636)
Boxcar Smoothing: 0 (USB2E3636)
Correct for Electrical Dark: No (USB2E3636)
Strobe/Lamp Enabled: No (USB2E3636)
Correct for Detector Non-linearity: No (USB2E3636)
Correct for Stray Light: No (USB2E3636)
Number of Pixels in Processed Spectrum: 2048
>>>>>Begin Processed Spectral Data<<<<<
180.28	0.000
180.65	373.160
181.02	374.672
181.39	363.415
181.77	382.427
182.14	367.755
182.51	372.047
182.88	331.273
183.25	366.667
183.63	384.583
184.00	364.344
184.37	416.337
184.74	338.132
185.11	358.943
185.49	317.708
185.86	429.082
186.23	349.813
186.60	461.735
186.97	290.419
187.35	365.992
187.72	381.277
188.09	358.506
188.46	332.740
188.83	367.886
189.20	-268.671
189.58	-39.216
189.95	-38.074
190.32	-39.478
190.69	-35.676
191.06	-37.039
191.43	-39.582
191.81	-38.024
192.18	-38.835
192.55	-36.324
192.92	-40.243
193.29	-39.753
193.66	-35.691
194.03	-36.842
194.41	-41.503
194.78	-39.557
195.15	-39.521
195.52	-41.222
195.89	-33.420
196.26	-43.871
196.63	-37.937
197.01	-39.060
197.38	-40.033
197.75	-38.215
198.12	-43.196
198.49	-35.433
198.86	-42.746
199.23	-36.811
199.60	-39.530
199.98	-38.996
200.35	-42.078
200.72	-43.941
201.09	-39.900
201.46	-40.813
201.83	-38.745
202.20	-38.618
202.57	-38.041
202.94	-43.202
203.31	-41.102
203.69	-33.244
204.06	-40.223
204.43	-40.769
204.80	-41.276
205.17	-42.622
205.54	-37.568
205.91	-40.901
206.28	-43.697
206.65	-39.176
207.02	-38.874
207.39	-41.676
207.76	-38.487
208.14	-36.557
208.51	-42.768
208.88	-40.000
209.25	-37.788
209.62	-41.381
209.99	-41.575
210.36	-37.514
210.73	-43.324
211.10	-40.485
211.47	-44.274
211.84	-37.500
212.21	-44.470
212.58	-42.333
212.95	-47.287
213.32	-42.111
213.69	-43.361
214.06	-42.433
214.43	-44.493
214.80	-42.667
215.17	-45.117
215.55	-39.236
215.92	-42.915
216.29	-41.677
216.66	-40.952
217.03	-47.280
217.40	-41.026
217.77	-46.909
218.14	-46.415
218.51	-41.845
218.88	-51.771
219.25	-43.025
219.62	-54.161
219.99	-49.173
220.36	-45.698
220.73	-45.635
221.10	-44.162
221.47	-52.665
221.84	-46.947
222.21	-45.585
222.58	-48.765
222.95	-46.507
223.32	-42.536
223.69	-49.334
224.06	-42.270
224.43	-44.603
224.80	-44.037
225.17	-51.429
225.54	-50.613
225.91	-53.360
226.27	-41.831
226.64	-46.815
227.01	-44.459
227.38	-48.685
227.75	-43.909
228.12	-50.000
228.49	-50.033
228.86	-52.829
229.23	-52.197
229.60	-50.366
229.97	-49.372
230.34	-50.627
230.71	-48.332
231.08	-46.790
231.45	-52.754
231.82	-50.772
232.19	-49.196
232.56	-47.843
232.93	-50.867
233.30	-47.358
233.66	-51.327
234.03	-47.943
234.40	-56.375
234.77	-46.630
235.14	-55.940
235.51	-59.656
235.88	-50.745
236.25	-55.310
236.62	-54.827
236.99	-56.496
237.36	-48.676
237.73	-51.583
238.09	-59.410
238.46	-48.698
238.83	-53.270
239.20	-55.208
239.57	-53.895
239.94	-50.865
240.31	-54.170
240.68	-56.101
241.05	-49.398
241.41	-60.212
241.78	-53.018
242.15	-57.368
242.52	-60.175
242.89	-57.632
243.26	-56.164
243.63	-63.202
244.00	-54.966
244.36	-56.486
244.73	-62.282
245.10	-60.860
245.47	-63.695
245.84	-59.740
246.21	-61.329
246.58	-54.863
246.94	-53.566
247.31	-58.570
247.68	-54.742
248.05	-65.531
248.42	-52.981
248.79	-57.176
249.15	-59.509
249.52	-61.631
249.89	-63.365
250.26	-59.014
250.63	-52.518
251.00	-54.738
251.36	-62.932
251.73	-57.826
252.10	-55.917
252.47	-68.791
252.84	-55.401
253.20	-60.124
253.57	-60.325
253.94	-61.116
254.31	-63.255
254.68	-55.903
255.05	-66.585
255.41	-54.802
255.78	-63.128
256.15	-59.646
256.52	-59.639
256.88	-60.792
257.25	-56.592
257.62	-61.793
257.99	-66.638
258.36	-53.828
258.72	-59.286
259.09	-54.096
259.46	-65.558
259.83	-53.118
260.19	-64.433
260.56	-55.718
260.93	-62.326
261.30	-58.642
261.67	-63.696
262.03	-57.916
262.40	-66.997
262.77	-58.215
263.14	-69.415
263.50	-58.203
263.87	-56.899
264.24	-60.341
264.61	-63.688
264.97	-59.697
265.34	-55.352
265.71	-61.436
266.07	-59.646
266.44	-56.290
266.81	-60.668
267.18	-63.629
267.54	-61.354
267.91	-63.851
268.28	-66.723
268.64	-62.543
269.01	-63.774
269.38	-63.339
269.75	-67.359
270.11	-59.950
270.48	-60.422
270.85	-59.413
271.21	-54.197
271.58	-62.634
271.95	-56.017
272.32	-65.168
272.68	-68.209
273.05	-67.903
273.42	-68.547
273.78	-60.989
274.15	-60.535
274.52	-67.388
274.88	-64.932
275.25	-61.538
275.62	-62.966
275.98	-61.924
276.35	-64.842
276.72	-64.860
277.08	-58.626
277.45	-66.807
277.82	-60.762
278.18	-62.540
278.55	-63.014
278.92	-65.210
279.28	-66.667
279.65	-71.594
280.01	-68.295
280.38	-64.326
280.75	-57.036
281.11	-66.176
281.48	-59.578
281.85	-63.311
282.21	-63.350
282.58	-61.312
282.95	-56.648
283.31	-61.829
283.68	-62.384
284.04	-72.308
284.41	-60.502
284.78	-66.501
285.14	-57.977
285.51	-66.326
285.87	-59.759
286.24	-63.219
286.61	-68.120
286.97	-66.750
287.34	-62.997
287.70	-60.920
288.07	-61.551
288.44	-59.935
288.80	-56.618
289.17	-59.408
289.53	-65.803
289.90	-64.610
290.26	-66.250
290.63	-66.408
291.00	-68.074
291.36	-65.452
291.73	-63.789
292.09	-65.599
292.46	-60.888
292.82	-54.538
293.19	-63.973
293.56	-72.242
293.92	-69.269
294.29	-69.577
294.65	-67.632
295.02	-65.225
295.38	-66.551
295.75	-59.681
296.11	-63.319
296.48	-73.925
296.84	-68.840
297.21	-55.502
297.57	-52.769
297.94	-60.522
298.30	-59.037
298.67	-61.852
299.04	-52.644
299.40	-56.003
299.77	-62.080
300.13	-61.592
300.50	-59.553
300.86	-58.049
301.23	-53.444
301.59	-63.480
301.96	-63.149
302.32	-64.203
302.69	-58.327
303.05	-60.599
303.42	-56.595
303.78	-58.127
304.14	-63.376
304.51	-59.112
304.87	-53.729
305.24	-52.740
305.60	-56.555
305.97	-55.008
306.33	-51.083
306.70	-52.039
307.06	-54.609
307.43	-51.935
307.79	-52.237
308.16	-61.094
308.52	-58.684
308.88	-62.273
309.25	-54.151
309.61	-54.323
309.98	-64.804
310.34	-55.867
310.71	-58.824
311.07	-57.870
311.44	-55.201
311.80	-53.679
312.16	-53.318
312.53	-48.429
312.89	-51.441
313.26	-53.601
313.62	-53.057
313.98	-42.945
314.35	-50.534
314.71	-47.826
315.08	-46.828
315.44	-51.214
315.80	-44.712
316.17	-51.957
316.53	-48.039
316.90	-50.913
317.26	-47.480
317.62	-45.377
317.99	-51.364
318.35	-46.760
318.72	-45.750
319.08	-40.883
319.44	-55.117
319.81	-41.158
320.17	-46.782
320.53	-43.590
320.90	-39.368
321.26	-48.496
321.62	-41.692
321.99	-43.510
322.35	-47.726
322.72	-43.863
323.08	-47.886
323.44	-46.177
323.81	-39.454
324.17	-43.063
324.53	-41.043
324.90	-39.437
325.26	-40.349
325.62	-39.931
325.99	-39.919
326.35	-40.297
326.71	-40.549
327.08	-35.937
327.44	-34.343
327.80	-35.941
328.16	-34.529
328.53	-40.841
328.89	-37.409
329.25	-40.876
329.62	-28.171
329.98	-33.362
330.34	-36.250
330.71	-33.523
331.07	-32.166
331.43	-31.241
331.79	-27.846
332.16	-25.686
332.52	-28.862
332.88	-31.846
333.24	-28.156
333.61	-29.675
333.97	-29.404
334.33	-27.388
334.70	-29.220
335.06	-25.511
335.42	-28.870
335.78	-27.969
336.15	-28.350
336.51	-27.855
336.87	-24.684
337.23	-23.459
337.60	-24.683
337.96	-27.134
338.32	-23.565
338.68	-23.764
339.04	-24.948
339.41	-23.736
339.77	-20.196
340.13	-24.662
340.49	-21.858
340.86	-21.915
341.22	-22.395
341.58	-22.676
341.94	-19.696
342.30	-22.719
342.67	-20.729
343.03	-20.923
343.39	-20.376
343.75	-20.318
344.11	-19.068
344.48	-19.887
344.84	-18.394
345.20	-19.368
345.56	-19.368
345.92	-18.686
346.28	-18.386
346.65	-17.068
347.01	-19.816
347.37	-16.075
347.73	-17.194
348.09	-15.745
348.45	-16.999
348.82	-16.399
349.18	-13.934
349.54	-14.172
349.90	-14.945
350.26	-15.802
350.62	-14.595
350.98	-15.073
351.35	-14.412
351.71	-13.951
352.07	-15.676
352.43	-14.307
352.79	-13.118
353.15	-14.441
353.51	-12.890
353.87	-12.522
354.24	-13.436
354.60	-12.637
354.96	-12.919
355.32	-12.571
355.68	-13.258
356.04	-11.647
356.40	-12.552
356.76	-9.807
357.12	-10.334
357.48	-11.442
357.85	-12.198
358.21	-11.339
358.57	-11.051
358.93	-10.919
359.29	-11.650
359.65	-10.513
360.01	-10.601
360.37	-9.937
360.73	-9.711
361.09	-10.107
361.45	-9.655
361.81	-8.567
362.17	-8.337
362.53	-8.116
362.89	-8.998
363.25	-8.235
363.62	-9.130
363.98	-8.953
364.34	-8.216
364.70	-7.267
365.06	-8.213
365.42	-8.981
365.78	-7.954
366.14	-8.417
366.50	-7.929
366.86	-7.872
367.22	-7.866
367.58	-7.915
367.94	-7.293
368.30	-7.392
368.66	-7.084
369.02	-6.494
369.38	-7.324
369.74	-7.041
370.10	-7.324
370.46	-6.753
370.82	-6.317
371.18	-6.607
371.54	-6.637
371.90	-5.749
372.26	-6.116
372.62	-5.146
372.98	-5.744
373.33	-5.531
373.69	-6.341
374.05	-4.817
374.41	-5.535
374.77	-4.859
375.13	-5.606
375.49	-5.194
375.85	-5.424
376.21	-4.972
376.57	-4.700
376.93	-5.147
377.29	-4.575
377.65	-4.084
378.01	-4.166
378.37	-4.373
378.73	-3.829
379.08	-4.283
379.44	-4.454
379.80	-3.863
380.16	-4.028
380.52	-4.003
380.88	-3.874
381.24	-4.123
381.60	-3.783
381.96	-3.307
382.32	-3.638
382.67	-2.917
383.03	-2.286
383.39	-3.467
383.75	-2.753
384.11	-2.479
384.47	-2.305
384.83	-2.399
385.19	-2.171
385.54	-2.166
385.90	-2.012
386.26	-1.693
386.62	-1.517
386.98	-1.469
387.34	-1.872
387.70	-1.277
388.05	-1.552
388.41	-0.786
388.77	-0.815
389.13	-0.622
389.49	-0.926
389.85	-0.956
390.20	-0.366
390.56	-0.461
390.92	-0.192
391.28	-0.347
391.64	-0.034
391.99	-0.125
392.35	0.373
392.71	0.651
393.07	0.128
393.43	0.117
393.78	0.860
394.14	1.122
394.50	1.622
394.86	0.795
395.22	1.572
395.57	1.073
395.93	1.358
396.29	1.741
396.65	1.943
397.00	2.015
397.36	1.901
397.72	1.997
398.08	2.321
398.43	2.261
398.79	2.530
399.15	2.594
399.51	2.719
399.86	2.921
400.22	3.020
400.58	3.222
400.94	3.354
401.29	3.352
401.65	3.754
402.01	3.654
402.37	3.786
402.72	4.008
403.08	4.014
403.44	4.355
403.79	4.279
404.15	4.366
404.51	4.671
404.86	4.921
405.22	5.164
405.58	4.786
405.94	4.797
406.29	5.127
406.65	5.704
407.01	5.419
407.36	5.568
407.72	5.523
408.08	5.736
408.43	6.022
408.79	6.029
409.15	6.257
409.50	6.238
409.86	6.274
410.22	6.385
410.57	6.607
410.93	6.937
411.29	7.015
411.64	6.882
412.00	7.122
412.35	7.252
412.71	7.458
413.07	7.273
413.42	7.395
413.78	7.848
414.14	7.562
414.49	8.057
414.85	7.999
415.20	8.110
415.56	8.386
415.92	8.534
416.27	8.709
416.63	8.726
416.98	8.946
417.34	8.896
417.70	9.001
418.05	9.224
418.41	9.039
418.76	9.311
419.12	9.492
419.47	9.531
419.83	9.583
420.19	9.888
420.54	10.024
420.90	10.060
421.25	9.956
421.61	10.411
421.96	10.326
422.32	10.375
422.67	10.587
423.03	10.611
423.39	10.598
423.74	11.013
424.10	10.958
424.45	11.132
424.81	11.217
425.16	11.290
425.52	11.460
425.87	11.545
426.23	11.804
426.58	11.708
426.94	11.854
427.29	12.160
427.65	12.068
428.00	12.181
428.36	12.262
428.71	12.442
429.07	12.688
429.42	12.505
429.78	12.729
430.13	12.641
430.49	12.667
430.84	13.060
431.19	12.991
431.55	13.153
431.90	13.267
432.26	13.299
432.61	13.585
432.97	13.535
433.32	13.640
433.68	13.702
434.03	13.885
434.39	14.022
434.74	13.946
435.09	14.183
435.45	14.201
435.80	14.302
436.16	14.498
436.51	14.433
436.86	14.544
437.22	14.759
437.57	14.874
437.93	14.863
438.28	14.838
438.63	14.903
438.99	15.086
439.34	15.173
439.70	15.395
440.05	15.302
440.40	15.351
440.76	15.667
441.11	15.547
441.47	15.741
441.82	15.918
442.17	15.918
442.53	15.965
442.88	16.222
443.23	16.231
443.59	16.282
443.94	16.315
444.29	16.428
444.65	16.450
445.00	16.649
445.35	16.687
445.71	16.746
446.06	16.935
446.41	16.854
446.77	17.063
447.12	17.118
447.47	17.256
447.83	17.232
448.18	17.253
448.53	17.580
448.89	17.370
449.24	17.661
449.59	17.630
449.94	17.668
450.30	17.662
450.65	18.023
451.00	17.994
451.36	18.155
451.71	18.224
452.06	18.252
452.41	18.310
452.77	18.473
453.12	18.568
453.47	18.529
453.82	18.702
454.18	18.658
454.53	18.795
454.88	18.979
455.23	18.972
455.59	19.045
455.94	19.144
456.29	19.296
456.64	19.246
457.00	19.392
457.35	19.468
457.70	19.514
458.05	19.524
458.40	19.734
458.76	19.864
459.11	20.068
459.46	19.956
459.81	20.074
460.16	20.186
460.52	20.178
460.87	20.269
461.22	20.363
461.57	20.458
461.92	20.515
462.28	20.659
462.63	20.784
462.98	20.692
463.33	20.867
463.68	20.978
464.03	21.002
464.38	21.001
464.74	21.088
465.09	21.150
465.44	21.203
465.79	21.282
466.14	21.328
466.49	21.425
466.84	21.481
467.20	21.547
467.55	21.654
467.90	21.660
468.25	21.546
468.60	21.919
468.95	21.946
469.30	21.952
469.65	21.819
470.00	22.056
470.36	22.129
470.71	22.253
471.06	22.154
471.41	22.287
471.76	22.206
472.11	22.375
472.46	22.364
472.81	22.477
473.16	22.478
473.51	22.574
473.86	22.432
474.21	22.568
474.56	22.566
474.91	22.618
475.26	22.659
475.62	22.734
475.97	22.685
476.32	22.773
476.67	22.708
477.02	22.766
477.37	22.828
477.72	22.740
478.07	22.788
478.42	22.747
478.77	22.894
479.12	22.849
479.47	22.888
479.82	22.835
480.17	22.819
480.52	22.799
480.87	22.908
481.22	22.874
481.57	22.871
481.92	22.935
482.27	22.901
482.62	22.884
482.97	22.974
483.32	22.929
483.67	22.959
484.02	22.943
484.36	22.997
484.71	22.972
485.06	23.091
485.41	23.086
485.76	23.155
486.11	23.113
486.46	23.083
486.81	23.111
487.16	23.148
487.51	23.226
487.86	23.239
488.21	23.301
488.56	23.409
488.91	23.392
489.25	23.440
489.60	23.532
489.95	23.515
490.30	23.614
490.65	23.707
491.00	23.784
491.35	23.903
491.70	23.886
492.05	23.948
492.39	24.043
492.74	24.096
493.09	24.146
493.44	24.200
493.79	24.278
494.14	24.354
494.49	24.441
494.83	24.490
495.18	24.552
495.53	24.676
495.88	24.714
496.23	24.802
496.58	24.816
496.92	24.917
497.27	24.955
497.62	25.025
497.97	25.153
498.32	25.114
498.67	25.312
499.01	25.286
499.36	25.384
499.71	25.407
500.06	25.467
500.41	25.533
500.75	25.657
501.10	25.672
501.45	25.727
501.80	25.740
502.14	25.847
502.49	25.897
502.84	25.898
503.19	26.007
503.53	26.122
503.88	26.092
504.23	26.093
504.58	26.154
504.92	26.197
505.27	26.258
505.62	26.295
505.97	26.340
506.31	26.346
506.66	26.404
507.01	26.414
507.36	26.460
507.70	26.381
508.05	26.438
508.40	26.420
508.74	26.445
509.09	26.382
509.44	26.469
509.79	26.394
510.13	26.348
510.48	26.386
510.83	26.332
511.17	26.362
511.52	26.305
511.87	26.284
512.21	26.317
512.56	26.306
512.91	26.297
513.25	26.387
513.60	26.463
513.95	26.447
514.29	26.468
514.64	26.538
514.98	26.526
515.33	26.525
515.68	26.541
516.02	26.701
516.37	26.651
516.72	26.699
517.06	26.729
517.41	26.749
517.75	26.799
518.10	26.873
518.45	26.906
518.79	26.864
519.14	26.969
519.48	26.944
519.83	26.950
520.18	27.036
520.52	27.033
520.87	26.976
521.21	27.034
521.56	27.117
521.90	27.054
522.25	27.097
522.60	27.047
522.94	27.062
523.29	27.108
523.63	27.085
523.98	27.097
524.32	27.031
524.67	27.078
525.01	27.065
525.36	27.012
525.70	26.920
526.05	26.967
526.39	26.951
526.74	26.882
527.08	26.830
527.43	26.769
527.77	26.766
528.12	26.677
528.46	26.606
528.81	26.577
529.15	26.539
529.50	26.517
529.84	26.372
530.19	26.289
530.53	26.180
530.88	26.137
531.22	26.040
531.57	25.996
531.91	25.840
532.26	25.681
532.60	25.570
532.94	25.423
533.29	25.339
533.63	25.172
533.98	25.017
534.32	24.889
534.67	24.718
535.01	24.529
535.35	24.419
535.70	24.166
536.04	24.023
536.39	23.828
536.73	23.700
537.07	23.529
537.42	23.295
537.76	23.071
538.11	22.947
538.45	22.715
538.79	22.557
539.14	22.405
539.48	22.171
539.82	21.993
540.17	21.852
540.51	21.688
540.85	21.581
541.20	21.396
541.54	21.231
541.89	21.180
542.23	21.019
542.57	20.916
542.92	20.805
543.26	20.668
543.60	20.633
543.94	20.640
544.29	20.545
544.63	20.457
544.97	20.398
545.32	20.443
545.66	20.365
546.00	20.328
546.35	20.364
546.69	20.360
547.03	20.364
547.37	20.410
547.72	20.395
548.06	20.450
548.40	20.436
548.75	20.516
549.09	20.568
549.43	20.585
549.77	20.689
550.12	20.741
550.46	20.841
550.80	20.902
551.14	21.013
551.49	21.082
551.83	21.258
552.17	21.355
552.51	21.458
552.85	21.552
553.20	21.744
553.54	21.886
553.88	22.076
554.22	22.189
554.56	22.444
554.91	22.682
555.25	22.792
555.59	22.944
555.93	23.269
556.27	23.366
556.62	23.594
556.96	23.918
557.30	24.066
557.64	24.250
557.98	24.461
558.32	24.676
558.67	24.937
559.01	25.113
559.35	25.336
559.69	25.647
560.03	25.780
560.37	25.994
560.71	26.270
561.05	26.451
561.40	26.586
561.74	26.824
562.08	27.011
562.42	27.188
562.76	27.392
563.10	27.607
563.44	27.723
563.78	27.928
564.12	28.058
564.46	28.219
564.81	28.360
565.15	28.505
565.49	28.585
565.83	28.725
566.17	28.819
566.51	28.880
566.85	28.913
567.19	29.015
567.53	29.133
567.87	29.221
568.21	29.216
568.55	29.307
568.89	29.346
569.23	29.339
569.57	29.440
569.91	29.355
570.25	29.366
570.59	29.438
570.93	29.358
571.27	29.410
571.61	29.327
571.95	29.323
572.29	29.297
572.63	29.216
572.97	29.204
573.31	29.096
573.65	29.057
573.99	28.907
574.33	28.862
574.67	28.785
575.01	28.704
575.35	28.603
575.69	28.498
576.03	28.442
576.37	28.286
576.71	28.216
577.05	28.024
577.39	27.963
577.73	27.834
578.06	27.680
578.40	27.514
578.74	27.381
579.08	27.233
579.42	27.128
579.76	26.959
580.10	26.779
580.44	26.617
580.78	26.430
581.12	26.272
581.45	26.053
581.79	25.922
582.13	25.694
582.47	25.561
582.81	25.386
583.15	25.220
583.49	25.079
583.83	24.930
584.16	24.759
584.50	24.690
584.84	24.558
585.18	24.387
585.52	24.295
585.86	24.138
586.19	23.966
586.53	23.851
586.87	23.728
587.21	23.544
587.55	23.406
587.88	23.301
588.22	23.168
588.56	22.998
588.90	22.740
589.24	22.670
589.57	22.495
589.91	22.292
590.25	22.127
590.59	21.935
590.92	21.738
591.26	21.555
591.60	21.327
591.94	21.125
592.27	20.890
592.61	20.621
592.95	20.430
593.29	20.242
593.62	19.981
593.96	19.694
594.30	19.400
594.64	19.108
594.97	18.881
595.31	18.517
595.65	18.177
595.98	17.823
596.32	17.452
596.66	17.104
597.00	16.696
597.33	16.322
597.67	15.935
598.01	15.503
598.34	15.116
598.68	14.691
599.02	14.347
599.35	13.936
599.69	13.612
600.03	13.235
600.36	12.874
600.70	12.616
601.03	12.282
601.37	12.020
601.71	11.749
602.04	11.466
602.38	11.230
602.72	10.974
603.05	10.758
603.39	10.515
603.72	10.290
604.06	10.038
604.40	9.830
604.73	9.580
605.07	9.331
605.40	9.100
605.74	8.883
606.08	8.619
606.41	8.379
606.75	8.119
607.08	7.887
607.42	7.627
607.75	7.391
608.09	7.119
608.42	6.893
608.76	6.598
609.10	6.381
609.43	6.145
609.77	5.900
610.10	5.706
610.44	5.439
610.77	5.242
611.11	5.006
611.44	4.787
611.78	4.538
612.11	4.392
612.45	4.173
612.78	3.971
613.12	3.785
613.45	3.596
613.79	3.421
614.12	3.251
614.46	3.102
614.79	2.953
615.13	2.803
615.46	2.641
615.79	2.511
616.13	2.390
616.46	2.270
616.80	2.158
617.13	2.099
617.47	1.972
617.80	1.897
618.13	1.850
618.47	1.761
618.80	1.714
619.14	1.629
619.47	1.558
619.81	1.514
620.14	1.415
620.47	1.422
620.81	1.346
621.14	1.295
621.47	1.236
621.81	1.207
622.14	1.160
622.48	1.134
622.81	1.104
623.14	1.053
623.48	1.034
623.81	1.004
624.14	0.979
624.48	0.956
624.81	0.951
625.14	0.920
625.48	0.897
625.81	0.905
626.14	0.881
626.48	0.905
626.81	0.888
627.14	0.891
627.48	0.899
627.81	0.890
628.14	0.935
628.47	0.925
628.81	0.930
629.14	0.954
629.47	0.979
629.81	1.009
630.14	1.044
630.47	1.079
630.80	1.127
