SpectraSuite Data File
++++++++++++++++++++++++++++++++++++
Date: Mon Apr 13 17:22:35 BST 2015
User: mpfc3
Dark Spectrum Present: Yes
Reference Spectrum Present: Yes
Number of Sampled Component Spectra: 1
Spectrometers: USB2E3636
Integration Time (usec): 30000 (USB2E3636)
Spectra Averaged: 100 (USB2E3636)
Boxcar Smoothing: 0 (USB2E3636)
Correct for Electrical Dark: No (USB2E3636)
Strobe/Lamp Enabled: No (USB2E3636)
Correct for Detector Non-linearity: No (USB2E3636)
Correct for Stray Light: No (USB2E3636)
Number of Pixels in Processed Spectrum: 2048
>>>>>Begin Processed Spectral Data<<<<<
180.28	0.000
180.65	165.000
181.02	255.556
181.39	198.276
181.77	154.054
182.14	205.660
182.51	158.261
182.88	1420.000
183.25	204.167
183.63	97.561
184.00	118.018
184.37	337.500
184.74	305.263
185.11	-2300.000
185.49	-84.783
185.86	321.053
186.23	663.636
186.60	825.000
186.97	188.000
187.35	134.831
187.72	-275.000
188.09	350.000
188.46	221.277
188.83	147.863
189.20	26.423
189.58	14.236
189.95	12.776
190.32	15.035
190.69	18.702
191.06	12.909
191.43	17.540
191.81	15.860
192.18	18.348
192.55	14.766
192.92	17.494
193.29	19.708
193.66	17.187
194.03	15.664
194.41	15.777
194.78	14.388
195.15	14.937
195.52	17.371
195.89	17.898
196.26	15.426
196.63	10.690
197.01	16.583
197.38	12.657
197.75	17.847
198.12	14.449
198.49	15.811
198.86	20.164
199.23	20.493
199.60	14.087
199.98	15.385
200.35	12.118
200.72	16.276
201.09	13.993
201.46	17.163
201.83	15.608
202.20	18.096
202.57	18.579
202.94	16.805
203.31	13.178
203.69	15.325
204.06	16.274
204.43	15.175
204.80	15.741
205.17	15.239
205.54	15.986
205.91	15.205
206.28	11.451
206.65	16.952
207.02	16.716
207.39	17.372
207.76	15.599
208.14	14.539
208.51	18.101
208.88	17.521
209.25	20.073
209.62	14.878
209.99	16.334
210.36	12.284
210.73	16.131
211.10	20.182
211.47	18.320
211.84	17.600
212.21	13.560
212.58	11.469
212.95	13.498
213.32	16.885
213.69	16.291
214.06	15.000
214.43	17.741
214.80	14.717
215.17	20.072
215.55	16.751
215.92	17.866
216.29	19.610
216.66	18.892
217.03	13.522
217.40	19.948
217.77	20.233
218.14	18.001
218.51	15.110
218.88	16.609
219.25	16.049
219.62	16.386
219.99	18.490
220.36	20.812
220.73	17.221
221.10	19.051
221.47	17.583
221.84	14.859
222.21	16.491
222.58	21.443
222.95	16.690
223.32	18.373
223.69	16.947
224.06	20.255
224.43	24.776
224.80	19.803
225.17	17.773
225.54	18.574
225.91	15.201
226.27	22.063
226.64	16.287
227.01	18.291
227.38	19.013
227.75	18.871
228.12	18.406
228.49	17.391
228.86	17.997
229.23	16.667
229.60	23.364
229.97	20.672
230.34	17.516
230.71	19.869
231.08	12.891
231.45	20.089
231.82	14.085
232.19	22.255
232.56	17.601
232.93	13.050
233.30	19.955
233.66	17.698
234.03	20.861
234.40	21.342
234.77	12.121
235.14	20.042
235.51	17.174
235.88	19.283
236.25	18.276
236.62	16.976
236.99	18.951
237.36	15.448
237.73	17.228
238.09	21.080
238.46	19.549
238.83	14.120
239.20	17.923
239.57	22.483
239.94	15.022
240.31	17.388
240.68	14.815
241.05	15.757
241.41	18.657
241.78	16.216
242.15	17.506
242.52	21.323
242.89	18.057
243.26	19.861
243.63	17.441
244.00	12.388
244.36	19.640
244.73	18.315
245.10	19.324
245.47	16.245
245.84	16.749
246.21	16.585
246.58	15.193
246.94	19.854
247.31	15.678
247.68	22.416
248.05	22.372
248.42	24.858
248.79	22.463
249.15	20.455
249.52	22.118
249.89	21.186
250.26	23.417
250.63	22.596
251.00	22.811
251.36	24.542
251.73	24.859
252.10	14.456
252.47	25.227
252.84	15.993
253.20	16.384
253.57	21.146
253.94	23.381
254.31	16.291
254.68	22.089
255.05	20.070
255.41	20.586
255.78	22.727
256.15	15.718
256.52	20.525
256.88	24.877
257.25	21.680
257.62	17.565
257.99	22.993
258.36	18.771
258.72	22.397
259.09	19.967
259.46	22.640
259.83	18.885
260.19	22.053
260.56	19.318
260.93	22.360
261.30	14.019
261.67	18.236
262.03	18.493
262.40	25.042
262.77	23.596
263.14	21.003
263.50	21.366
263.87	20.969
264.24	19.272
264.61	21.766
264.97	18.961
265.34	18.136
265.71	17.088
266.07	17.541
266.44	17.399
266.81	17.333
267.18	28.632
267.54	21.960
267.91	26.644
268.28	23.615
268.64	21.947
269.01	14.398
269.38	21.366
269.75	14.510
270.11	20.437
270.48	17.908
270.85	20.165
271.21	19.227
271.58	18.538
271.95	17.561
272.32	20.528
272.68	21.930
273.05	22.035
273.42	23.348
273.78	22.399
274.15	22.136
274.52	15.271
274.88	21.194
275.25	17.517
275.62	17.524
275.98	21.062
276.35	21.913
276.72	29.446
277.08	21.549
277.45	23.495
277.82	21.275
278.18	17.297
278.55	26.098
278.92	20.416
279.28	14.914
279.65	22.354
280.01	19.531
280.38	21.820
280.75	17.668
281.11	25.174
281.48	16.815
281.85	25.425
282.21	22.634
282.58	17.820
282.95	22.940
283.31	22.596
283.68	27.288
284.04	20.771
284.41	19.397
284.78	21.982
285.14	15.713
285.51	21.196
285.87	25.712
286.24	20.596
286.61	18.660
286.97	21.715
287.34	15.112
287.70	16.150
288.07	25.320
288.44	18.868
288.80	20.263
289.17	18.919
289.53	22.113
289.90	21.164
290.26	26.885
290.63	18.850
291.00	19.147
291.36	19.303
291.73	22.068
292.09	21.377
292.46	25.193
292.82	24.013
293.19	18.056
293.56	22.144
293.92	23.678
294.29	18.039
294.65	19.689
295.02	22.642
295.38	21.674
295.75	21.864
296.11	21.225
296.48	17.539
296.84	22.451
297.21	24.317
297.57	20.318
297.94	21.181
298.30	19.799
298.67	19.811
299.04	17.842
299.40	21.564
299.77	19.428
300.13	17.604
300.50	24.058
300.86	17.657
301.23	24.252
301.59	22.103
301.96	21.827
302.32	24.462
302.69	26.105
303.05	18.862
303.42	19.163
303.78	21.446
304.14	20.914
304.51	20.866
304.87	19.952
305.24	24.596
305.60	20.871
305.97	20.329
306.33	22.896
306.70	21.006
307.06	25.099
307.43	17.907
307.79	20.886
308.16	22.588
308.52	17.409
308.88	20.749
309.25	19.465
309.61	18.144
309.98	23.688
310.34	20.468
310.71	22.444
311.07	18.883
311.44	19.166
311.80	19.985
312.16	21.036
312.53	20.942
312.89	25.262
313.26	20.307
313.62	21.995
313.98	21.802
314.35	18.699
314.71	19.464
315.08	19.040
315.44	15.262
315.80	22.548
316.17	14.897
316.53	21.925
316.90	20.918
317.26	18.255
317.62	22.849
317.99	19.212
318.35	23.347
318.72	18.338
319.08	17.368
319.44	17.299
319.81	16.359
320.17	21.632
320.53	17.666
320.90	19.455
321.26	16.032
321.62	13.116
321.99	20.919
322.35	16.966
322.72	15.317
323.08	15.627
323.44	18.261
323.81	16.954
324.17	17.484
324.53	18.238
324.90	15.958
325.26	15.770
325.62	14.586
325.99	16.089
326.35	13.872
326.71	13.033
327.08	20.726
327.44	17.752
327.80	16.515
328.16	14.483
328.53	11.500
328.89	18.095
329.25	16.974
329.62	15.113
329.98	11.243
330.34	15.769
330.71	16.189
331.07	16.716
331.43	12.805
331.79	15.209
332.16	13.890
332.52	14.500
332.88	13.532
333.24	14.825
333.61	14.788
333.97	12.647
334.33	13.007
334.70	13.830
335.06	12.654
335.42	13.052
335.78	12.964
336.15	10.094
336.51	12.702
336.87	13.108
337.23	11.532
337.60	11.202
337.96	13.659
338.32	9.242
338.68	10.596
339.04	10.346
339.41	13.686
339.77	12.986
340.13	10.782
340.49	11.552
340.86	12.092
341.22	10.945
341.58	10.027
341.94	11.031
342.30	10.582
342.67	10.757
343.03	8.691
343.39	9.791
343.75	9.642
344.11	9.148
344.48	9.146
344.84	8.808
345.20	9.234
345.56	9.729
345.92	10.287
346.28	8.394
346.65	7.613
347.01	8.267
347.37	10.094
347.73	10.422
348.09	8.298
348.45	8.761
348.82	5.953
349.18	8.516
349.54	8.368
349.90	8.249
350.26	6.768
350.62	7.690
350.98	6.839
351.35	7.883
351.71	8.498
352.07	7.580
352.43	8.071
352.79	6.790
353.15	8.440
353.51	6.625
353.87	6.491
354.24	6.587
354.60	6.734
354.96	7.414
355.32	6.468
355.68	6.408
356.04	7.293
356.40	7.529
356.76	7.735
357.12	6.843
357.48	5.680
357.85	4.278
358.21	7.779
358.57	6.581
358.93	6.555
359.29	6.656
359.65	7.043
360.01	5.022
360.37	5.922
360.73	4.971
361.09	5.633
361.45	5.787
361.81	5.572
362.17	6.515
362.53	6.072
362.89	6.298
363.25	4.624
363.62	5.825
363.98	5.429
364.34	5.982
364.70	5.304
365.06	4.394
365.42	4.684
365.78	5.017
366.14	5.656
366.50	4.563
366.86	4.789
367.22	4.599
367.58	4.697
367.94	5.261
368.30	5.039
368.66	4.922
369.02	5.142
369.38	4.108
369.74	4.884
370.10	4.746
370.46	4.707
370.82	4.845
371.18	4.802
371.54	4.883
371.90	5.029
372.26	4.073
372.62	4.677
372.98	4.799
373.33	4.371
373.69	4.008
374.05	4.254
374.41	4.642
374.77	4.395
375.13	4.986
375.49	5.399
375.85	4.272
376.21	4.221
376.57	4.810
376.93	4.535
377.29	4.703
377.65	4.429
378.01	4.555
378.37	4.198
378.73	4.299
379.08	4.741
379.44	4.558
379.80	4.851
380.16	4.432
380.52	4.518
380.88	4.398
381.24	4.764
381.60	4.799
381.96	4.776
382.32	4.797
382.67	4.925
383.03	5.225
383.39	5.585
383.75	5.566
384.11	5.453
384.47	5.484
384.83	5.559
385.19	4.996
385.54	5.445
385.90	5.265
386.26	5.774
386.62	5.757
386.98	5.655
387.34	5.819
387.70	5.567
388.05	6.258
388.41	5.703
388.77	5.986
389.13	5.778
389.49	6.137
389.85	6.109
390.20	6.469
390.56	6.290
390.92	6.023
391.28	6.694
391.64	6.961
391.99	6.558
392.35	6.747
392.71	6.738
393.07	7.015
393.43	6.943
393.78	7.363
394.14	6.974
394.50	6.899
394.86	7.263
395.22	7.067
395.57	7.662
395.93	7.646
396.29	7.813
396.65	7.857
397.00	7.780
397.36	8.117
397.72	8.011
398.08	7.994
398.43	8.441
398.79	8.579
399.15	8.438
399.51	8.693
399.86	8.591
400.22	8.579
400.58	8.758
400.94	9.071
401.29	8.854
401.65	8.990
402.01	9.218
402.37	9.518
402.72	9.440
403.08	9.445
403.44	9.332
403.79	9.351
404.15	9.735
404.51	10.133
404.86	10.100
405.22	9.888
405.58	10.066
405.94	10.236
406.29	10.160
406.65	10.637
407.01	10.610
407.36	10.482
407.72	11.007
408.08	11.000
408.43	11.021
408.79	10.926
409.15	11.133
409.50	11.286
409.86	11.356
410.22	11.566
410.57	11.878
410.93	11.815
411.29	11.822
411.64	11.896
412.00	12.064
412.35	12.261
412.71	12.147
413.07	12.392
413.42	12.478
413.78	12.576
414.14	12.604
414.49	12.839
414.85	12.980
415.20	12.858
415.56	13.064
415.92	13.198
416.27	13.313
416.63	13.468
416.98	13.574
417.34	13.613
417.70	13.640
418.05	13.733
418.41	13.948
418.76	14.031
419.12	14.263
419.47	14.120
419.83	14.278
420.19	14.298
420.54	14.539
420.90	14.587
421.25	14.772
421.61	14.998
421.96	14.922
422.32	15.028
422.67	15.159
423.03	15.050
423.39	15.327
423.74	15.393
424.10	15.488
424.45	15.540
424.81	15.779
425.16	15.675
425.52	15.897
425.87	16.242
426.23	16.084
426.58	16.264
426.94	16.302
427.29	16.306
427.65	16.465
428.00	16.589
428.36	16.745
428.71	16.646
429.07	16.999
429.42	17.067
429.78	17.123
430.13	16.995
430.49	17.183
430.84	17.232
431.19	17.511
431.55	17.588
431.90	17.720
432.26	17.728
432.61	17.940
432.97	18.016
433.32	18.045
433.68	18.052
434.03	18.234
434.39	18.373
434.74	18.410
435.09	18.294
435.45	18.647
435.80	18.642
436.16	18.789
436.51	18.771
436.86	18.912
437.22	19.096
437.57	19.020
437.93	19.126
438.28	19.119
438.63	19.171
438.99	19.510
439.34	19.509
439.70	19.632
440.05	19.692
440.40	19.841
440.76	19.676
441.11	19.978
441.47	19.745
441.82	20.125
442.17	20.060
442.53	20.118
442.88	20.294
443.23	20.305
443.59	20.405
443.94	20.549
444.29	20.419
444.65	20.651
445.00	20.725
445.35	20.722
445.71	20.905
446.06	20.814
446.41	20.987
446.77	20.989
447.12	21.225
447.47	21.306
447.83	21.335
448.18	21.350
448.53	21.598
448.89	21.668
449.24	21.510
449.59	21.818
449.94	21.806
450.30	21.965
450.65	21.972
451.00	22.066
451.36	22.137
451.71	22.253
452.06	22.250
452.41	22.487
452.77	22.529
453.12	22.600
453.47	22.566
453.82	22.803
454.18	22.893
454.53	22.889
454.88	22.946
455.23	23.077
455.59	23.217
455.94	23.173
456.29	23.173
456.64	23.492
457.00	23.620
457.35	23.618
457.70	23.820
458.05	23.792
458.40	23.853
458.76	23.846
459.11	23.966
459.46	24.038
459.81	24.245
460.16	24.156
460.52	24.332
460.87	24.355
461.22	24.490
461.57	24.671
461.92	24.646
462.28	24.698
462.63	24.748
462.98	24.810
463.33	24.928
463.68	25.022
464.03	25.100
464.38	25.071
464.74	25.344
465.09	25.486
465.44	25.219
465.79	25.494
466.14	25.529
466.49	25.485
466.84	25.594
467.20	25.606
467.55	25.757
467.90	25.801
468.25	25.636
468.60	25.889
468.95	25.898
469.30	25.879
469.65	25.985
470.00	25.943
470.36	26.141
470.71	26.202
471.06	26.253
471.41	26.303
471.76	26.204
472.11	26.279
472.46	26.221
472.81	26.476
473.16	26.465
473.51	26.448
473.86	26.411
474.21	26.477
474.56	26.421
474.91	26.502
475.26	26.509
475.62	26.501
475.97	26.511
476.32	26.547
476.67	26.456
477.02	26.450
477.37	26.519
477.72	26.506
478.07	26.519
478.42	26.575
478.77	26.528
479.12	26.455
479.47	26.493
479.82	26.490
480.17	26.473
480.52	26.430
480.87	26.464
481.22	26.486
481.57	26.441
481.92	26.468
482.27	26.434
482.62	26.442
482.97	26.436
483.32	26.420
483.67	26.434
484.02	26.397
484.36	26.396
484.71	26.383
485.06	26.435
485.41	26.438
485.76	26.522
486.11	26.483
486.46	26.519
486.81	26.589
487.16	26.556
487.51	26.577
487.86	26.742
488.21	26.712
488.56	26.730
488.91	26.735
489.25	26.881
489.60	26.956
489.95	26.891
490.30	27.042
490.65	27.183
491.00	27.212
491.35	27.214
491.70	27.233
492.05	27.338
492.39	27.354
492.74	27.454
493.09	27.558
493.44	27.600
493.79	27.661
494.14	27.760
494.49	27.783
494.83	27.852
495.18	27.977
495.53	28.013
495.88	28.171
496.23	28.253
496.58	28.304
496.92	28.410
497.27	28.436
497.62	28.482
497.97	28.543
498.32	28.709
498.67	28.736
499.01	28.819
499.36	28.858
499.71	29.017
500.06	29.043
500.41	29.130
500.75	29.238
501.10	29.262
501.45	29.392
501.80	29.378
502.14	29.416
502.49	29.528
502.84	29.541
503.19	29.528
503.53	29.627
503.88	29.712
504.23	29.727
504.58	29.753
504.92	29.813
505.27	29.889
505.62	29.967
505.97	29.913
506.31	30.034
506.66	30.054
507.01	30.106
507.36	30.106
507.70	30.102
508.05	30.059
508.40	30.018
508.74	30.038
509.09	30.068
509.44	30.085
509.79	29.976
510.13	29.929
510.48	29.933
510.83	29.898
511.17	29.878
511.52	29.848
511.87	29.932
512.21	29.920
512.56	29.900
512.91	29.960
513.25	30.038
513.60	30.025
513.95	30.051
514.29	30.046
514.64	30.125
514.98	30.119
515.33	30.224
515.68	30.308
516.02	30.279
516.37	30.317
516.72	30.346
517.06	30.406
517.41	30.459
517.75	30.472
518.10	30.526
518.45	30.523
518.79	30.576
519.14	30.595
519.48	30.636
519.83	30.624
520.18	30.740
520.52	30.698
520.87	30.666
521.21	30.788
521.56	30.798
521.90	30.802
522.25	30.798
522.60	30.810
522.94	30.863
523.29	30.842
523.63	30.818
523.98	30.747
524.32	30.792
524.67	30.762
525.01	30.785
525.36	30.778
525.70	30.767
526.05	30.754
526.39	30.644
526.74	30.635
527.08	30.633
527.43	30.536
527.77	30.560
528.12	30.406
528.46	30.416
528.81	30.380
529.15	30.249
529.50	30.174
529.84	30.095
530.19	29.926
530.53	29.892
530.88	29.768
531.22	29.690
531.57	29.537
531.91	29.453
532.26	29.322
532.60	29.164
532.94	29.006
533.29	28.875
533.63	28.731
533.98	28.535
534.32	28.384
534.67	28.226
535.01	28.004
535.35	27.823
535.70	27.636
536.04	27.446
536.39	27.205
536.73	26.978
537.07	26.764
537.42	26.592
537.76	26.405
538.11	26.216
538.45	25.942
538.79	25.763
539.14	25.470
539.48	25.364
539.82	25.147
540.17	24.975
540.51	24.720
540.85	24.614
541.20	24.388
541.54	24.268
541.89	24.135
542.23	24.058
542.57	23.883
542.92	23.741
543.26	23.683
543.60	23.531
543.94	23.567
544.29	23.364
544.63	23.368
544.97	23.307
545.32	23.356
545.66	23.316
546.00	23.302
546.35	23.246
546.69	23.307
547.03	23.299
547.37	23.361
547.72	23.376
548.06	23.411
548.40	23.481
548.75	23.499
549.09	23.542
549.43	23.599
549.77	23.776
550.12	23.807
550.46	23.870
550.80	23.964
551.14	24.100
551.49	24.107
551.83	24.334
552.17	24.508
552.51	24.642
552.85	24.800
553.20	24.962
553.54	25.089
553.88	25.305
554.22	25.475
554.56	25.646
554.91	25.983
555.25	26.163
555.59	26.337
555.93	26.598
556.27	26.829
556.62	27.072
556.96	27.361
557.30	27.596
557.64	27.801
557.98	28.117
558.32	28.339
558.67	28.556
559.01	28.907
559.35	29.044
559.69	29.265
560.03	29.558
560.37	29.824
560.71	30.082
561.05	30.347
561.40	30.490
561.74	30.733
562.08	31.008
562.42	31.263
562.76	31.454
563.10	31.612
563.44	31.850
563.78	31.989
564.12	32.183
564.46	32.409
564.81	32.462
565.15	32.641
565.49	32.790
565.83	32.954
566.17	33.011
566.51	33.066
566.85	33.255
567.19	33.326
567.53	33.353
567.87	33.592
568.21	33.503
568.55	33.591
568.89	33.655
569.23	33.623
569.57	33.659
569.91	33.583
570.25	33.653
570.59	33.661
570.93	33.535
571.27	33.582
571.61	33.555
571.95	33.467
572.29	33.455
572.63	33.341
572.97	33.365
573.31	33.226
573.65	33.132
573.99	33.075
574.33	33.019
574.67	32.851
575.01	32.718
575.35	32.578
575.69	32.501
576.03	32.397
576.37	32.358
576.71	32.197
577.05	32.055
577.39	31.899
577.73	31.706
578.06	31.553
578.40	31.478
578.74	31.285
579.08	31.070
579.42	30.902
579.76	30.676
580.10	30.472
580.44	30.349
580.78	30.133
581.12	29.890
581.45	29.726
581.79	29.508
582.13	29.308
582.47	29.110
582.81	29.038
583.15	28.767
583.49	28.635
583.83	28.468
584.16	28.219
584.50	28.071
584.84	27.985
585.18	27.759
585.52	27.594
585.86	27.462
586.19	27.258
586.53	27.157
586.87	27.072
587.21	26.793
587.55	26.647
587.88	26.534
588.22	26.342
588.56	26.122
588.90	26.003
589.24	25.820
589.57	25.651
589.91	25.428
590.25	25.202
590.59	24.952
590.92	24.770
591.26	24.518
591.60	24.270
591.94	24.108
592.27	23.798
592.61	23.514
592.95	23.286
593.29	23.059
593.62	22.748
593.96	22.396
594.30	22.072
594.64	21.774
594.97	21.506
595.31	21.084
595.65	20.691
595.98	20.312
596.32	19.935
596.66	19.543
597.00	19.079
597.33	18.622
597.67	18.191
598.01	17.688
598.34	17.293
598.68	16.904
599.02	16.367
599.35	15.935
599.69	15.553
600.03	15.162
600.36	14.772
600.70	14.402
601.03	14.059
601.37	13.750
601.71	13.444
602.04	13.135
602.38	12.839
602.72	12.600
603.05	12.335
603.39	12.054
603.72	11.770
604.06	11.529
604.40	11.339
604.73	10.989
605.07	10.719
605.40	10.435
605.74	10.127
606.08	9.825
606.41	9.556
606.75	9.294
607.08	9.021
607.42	8.734
607.75	8.500
608.09	8.205
608.42	7.894
608.76	7.626
609.10	7.350
609.43	7.101
609.77	6.837
610.10	6.553
610.44	6.267
610.77	6.039
611.11	5.829
611.44	5.563
611.78	5.325
612.11	5.090
612.45	4.859
612.78	4.640
613.12	4.424
613.45	4.230
613.79	4.020
614.12	3.829
614.46	3.653
614.79	3.502
615.13	3.348
615.46	3.183
615.79	3.035
616.13	2.916
616.46	2.784
616.80	2.650
617.13	2.563
617.47	2.494
617.80	2.408
618.13	2.312
618.47	2.204
618.80	2.126
619.14	2.073
619.47	2.017
619.81	1.943
620.14	1.893
620.47	1.810
620.81	1.760
621.14	1.709
621.47	1.677
621.81	1.617
622.14	1.573
622.48	1.534
622.81	1.511
623.14	1.483
623.48	1.465
623.81	1.404
624.14	1.370
624.48	1.374
624.81	1.346
625.14	1.335
625.48	1.337
625.81	1.304
626.14	1.308
626.48	1.285
626.81	1.300
627.14	1.267
627.48	1.276
627.81	1.310
628.14	1.304
628.47	1.358
628.81	1.363
629.14	1.380
629.47	1.414
629.81	1.456
630.14	1.477
630.47	1.519
630.80	1.581
631.14	1.647
631.47	1.679
631.80	1.775
632.13	1.851
632.47	1.938
632.80	2.048
633.13	2.113
633.46	2.234
633.79	2.361
634.13	2.477
634.46	2.590
634.79	2.770
635.12	2.911
635.45	3.046
635.79	3.210
636.12	3.395
636.45	3.577
636.78	3.794
637.11	3.949
637.45	4.187
637.78	4.423
638.11	4.649
638.44	4.849
638.77	5.108
639.10	5.371
639.44	5.633
639.77	5.882
640.10	6.087
640.43	6.417
640.76	6.628
641.09	6.911
641.42	7.222
641.75	7.455
642.08	7.740
642.42	7.958
642.75	8.250
643.08	8.516
643.41	8.742
643.74	9.029
