SpectraSuite Data File
++++++++++++++++++++++++++++++++++++
Date: Mon Apr 13 17:26:41 BST 2015
User: mpfc3
Dark Spectrum Present: Yes
Reference Spectrum Present: Yes
Number of Sampled Component Spectra: 1
Spectrometers: USB2E3636
Integration Time (usec): 30000 (USB2E3636)
Spectra Averaged: 100 (USB2E3636)
Boxcar Smoothing: 0 (USB2E3636)
Correct for Electrical Dark: No (USB2E3636)
Strobe/Lamp Enabled: No (USB2E3636)
Correct for Detector Non-linearity: No (USB2E3636)
Correct for Stray Light: No (USB2E3636)
Number of Pixels in Processed Spectrum: 2048
>>>>>Begin Processed Spectral Data<<<<<
180.28	0.000
180.65	230.000
181.02	151.111
181.39	113.793
181.77	305.405
182.14	252.830
182.51	149.565
182.88	1240.000
183.25	220.833
183.63	45.122
184.00	85.586
184.37	191.667
184.74	339.474
185.11	700.000
185.49	-139.130
185.86	371.053
186.23	709.091
186.60	566.667
186.97	296.000
187.35	162.921
187.72	-325.000
188.09	542.308
188.46	0.000
188.83	134.188
189.20	24.593
189.58	15.349
189.95	14.496
190.32	15.734
190.69	15.752
191.06	16.184
191.43	17.363
191.81	17.551
192.18	18.773
192.55	14.891
192.92	17.263
193.29	19.006
193.66	16.598
194.03	14.348
194.41	17.067
194.78	13.791
195.15	14.517
195.52	15.229
195.89	20.150
196.26	17.947
196.63	14.655
197.01	17.085
197.38	13.557
197.75	20.226
198.12	14.750
198.49	18.289
198.86	17.650
199.23	20.787
199.60	18.493
199.98	15.443
200.35	13.770
200.72	15.475
201.09	12.726
201.46	18.057
201.83	15.789
202.20	17.568
202.57	15.434
202.94	19.715
203.31	17.531
203.69	13.536
204.06	17.748
204.43	16.929
204.80	17.084
205.17	17.931
205.54	18.611
205.91	16.861
206.28	13.533
206.65	17.870
207.02	18.665
207.39	17.808
207.76	13.786
208.14	19.799
208.51	17.270
208.88	18.498
209.25	20.747
209.62	17.783
209.99	14.277
210.36	12.796
210.73	20.244
211.10	18.490
211.47	15.161
211.84	15.569
212.21	17.609
212.58	14.956
212.95	15.399
213.32	17.408
213.69	16.604
214.06	15.063
214.43	14.167
214.80	14.974
215.17	19.048
215.55	13.832
215.92	16.982
216.29	22.564
216.66	19.270
217.03	11.280
217.40	21.046
217.77	18.353
218.14	17.809
218.51	22.459
218.88	17.364
219.25	18.678
219.62	18.071
219.99	19.875
220.36	19.961
220.73	15.758
221.10	18.569
221.47	20.231
221.84	15.930
222.21	15.018
222.58	18.971
222.95	21.004
223.32	16.199
223.69	18.023
224.06	19.316
224.43	19.393
224.80	17.477
225.17	19.433
225.54	19.054
225.91	17.241
226.27	22.619
226.64	15.078
227.01	16.808
227.38	19.381
227.75	22.383
228.12	14.783
228.49	15.870
228.86	19.118
229.23	13.450
229.60	22.430
229.97	19.099
230.34	20.377
230.71	23.083
231.08	16.897
231.45	19.202
231.82	16.901
232.19	23.060
232.56	16.739
232.93	17.002
233.30	20.927
233.66	20.144
234.03	18.782
234.40	19.272
234.77	15.152
235.14	20.748
235.51	18.970
235.88	20.628
236.25	19.234
236.62	22.609
236.99	22.005
237.36	17.687
237.73	18.269
238.09	21.006
238.46	20.526
238.83	17.284
239.20	16.615
239.57	21.120
239.94	17.489
240.31	18.238
240.68	16.233
241.05	21.061
241.41	17.828
241.78	20.111
242.15	14.121
242.52	20.856
242.89	18.975
243.26	21.016
243.63	15.485
244.00	18.337
244.36	22.114
244.73	21.406
245.10	21.176
245.47	16.816
245.84	21.757
246.21	20.098
246.58	12.701
246.94	19.365
247.31	18.440
247.68	22.872
248.05	18.251
248.42	19.253
248.79	23.211
249.15	24.594
249.52	22.741
249.89	23.715
250.26	21.167
250.63	26.114
251.00	23.775
251.36	23.347
251.73	25.664
252.10	13.344
252.47	23.578
252.84	13.242
253.20	17.233
253.57	23.810
253.94	21.026
254.31	14.991
254.68	19.298
255.05	17.116
255.41	21.423
255.78	19.752
256.15	11.895
256.52	22.989
256.88	20.704
257.25	22.080
257.62	21.160
257.99	24.582
258.36	20.598
258.72	23.802
259.09	20.786
259.46	20.979
259.83	21.880
260.19	20.611
260.56	20.779
260.93	14.818
261.30	22.430
261.67	17.642
262.03	18.836
262.40	21.692
262.77	20.586
263.14	17.373
263.50	19.877
263.87	24.060
264.24	22.167
264.61	23.864
264.97	17.316
265.34	18.051
265.71	18.745
266.07	19.175
266.44	24.155
266.81	19.822
267.18	24.701
267.54	23.185
267.91	24.567
268.28	18.074
268.64	16.106
269.01	14.572
269.38	23.643
269.75	21.416
270.11	21.747
270.48	21.188
270.85	21.317
271.21	23.720
271.58	22.727
271.95	19.745
272.32	25.213
272.68	21.842
273.05	19.092
273.42	24.053
273.78	24.603
274.15	27.046
274.52	21.030
274.88	23.129
275.25	21.514
275.62	16.827
275.98	19.292
276.35	24.783
276.72	28.523
277.08	21.128
277.45	24.080
277.82	27.304
278.18	20.699
278.55	25.935
278.92	21.500
279.28	17.931
279.65	23.878
280.01	18.189
280.38	19.435
280.75	19.731
281.11	24.739
281.48	17.438
281.85	25.157
282.21	24.198
282.58	15.830
282.95	20.476
283.31	16.060
283.68	25.150
284.04	17.879
284.41	23.621
284.78	20.721
285.14	15.350
285.51	23.188
285.87	22.778
286.24	19.982
286.61	21.289
286.97	18.887
287.34	18.739
287.70	17.883
288.07	22.933
288.44	23.242
288.80	22.895
289.17	16.937
289.53	22.113
289.90	22.513
290.26	23.797
290.63	17.160
291.00	17.559
291.36	19.774
291.73	17.811
292.09	21.377
292.46	22.536
292.82	22.418
293.19	20.660
293.56	23.726
293.92	25.875
294.29	21.191
294.65	20.639
295.02	21.743
295.38	25.022
295.75	19.068
296.11	21.311
296.48	19.546
296.84	22.879
297.21	26.451
297.57	19.314
297.94	21.962
298.30	19.343
298.67	21.784
299.04	15.208
299.40	23.625
299.77	20.555
300.13	19.397
300.50	21.233
300.86	22.750
301.23	23.444
301.59	21.192
301.96	18.274
302.32	24.462
302.69	29.051
303.05	24.809
303.42	20.251
303.78	22.432
304.14	23.726
304.51	24.016
304.87	23.847
305.24	21.522
305.60	21.693
305.97	17.449
306.33	23.401
306.70	22.444
307.06	23.441
307.43	16.926
307.79	19.298
308.16	23.686
308.52	20.132
308.88	22.933
309.25	22.060
309.61	21.921
309.98	24.483
310.34	19.079
310.71	22.843
311.07	18.637
311.44	21.171
311.80	22.190
312.16	21.117
312.53	24.855
312.89	23.088
313.26	22.989
313.62	18.896
313.98	20.276
314.35	26.829
314.71	21.762
315.08	16.099
315.44	17.692
315.80	21.331
316.17	16.888
316.53	21.346
316.90	18.360
317.26	18.988
317.62	22.990
317.99	15.834
318.35	20.580
318.72	20.673
319.08	20.708
319.44	20.892
319.81	14.842
320.17	20.013
320.53	15.515
320.90	23.321
321.26	14.362
321.62	14.780
321.99	18.321
322.35	19.319
322.72	18.707
323.08	19.219
323.44	20.388
323.81	18.620
324.17	16.164
324.53	16.005
324.90	16.821
325.26	16.381
325.62	16.811
325.99	12.809
326.35	17.651
326.71	18.365
327.08	19.106
327.44	16.884
327.80	16.742
328.16	15.257
328.53	14.878
328.89	17.376
329.25	15.913
329.62	15.723
329.98	13.974
330.34	13.029
330.71	16.237
331.07	15.974
331.43	15.200
331.79	15.433
332.16	13.709
332.52	15.318
332.88	12.706
333.24	15.608
333.61	12.116
333.97	13.735
334.33	12.472
334.70	13.234
335.06	14.565
335.42	16.274
335.78	14.755
336.15	11.366
336.51	14.108
336.87	10.052
337.23	10.545
337.60	12.602
337.96	12.743
338.32	11.279
338.68	12.745
339.04	10.309
339.41	12.591
339.77	11.666
340.13	10.568
340.49	11.897
340.86	10.581
341.22	11.488
341.58	9.582
341.94	11.162
342.30	11.732
342.67	11.414
343.03	10.167
343.39	11.946
343.75	8.511
344.11	10.056
344.48	9.358
344.84	10.905
345.20	10.749
345.56	9.926
345.92	9.150
346.28	7.365
346.65	8.115
347.01	8.677
347.37	10.471
347.73	11.803
348.09	8.403
348.45	9.153
348.82	7.442
349.18	7.855
349.54	9.591
349.90	7.758
350.26	8.380
350.62	8.171
350.98	7.610
351.35	9.797
351.71	9.589
352.07	7.099
352.43	8.247
352.79	7.614
353.15	8.614
353.51	7.341
353.87	7.460
354.24	6.503
354.60	8.848
354.96	7.188
355.32	6.750
355.68	7.267
356.04	7.018
356.40	6.721
356.76	7.237
357.12	6.843
357.48	6.540
357.85	5.111
358.21	6.711
358.57	6.942
358.93	6.678
359.29	6.102
359.65	6.359
360.01	5.652
360.37	5.684
360.73	5.665
361.09	5.982
361.45	5.738
361.81	5.173
362.17	6.453
362.53	6.320
362.89	4.527
363.25	5.321
363.62	6.049
363.98	5.295
364.34	7.213
364.70	4.989
365.06	4.952
365.42	4.937
365.78	4.893
366.14	5.904
366.50	5.209
366.86	5.806
367.22	4.810
367.58	5.786
367.94	5.494
368.30	4.810
368.66	4.935
369.02	5.640
369.38	5.061
369.74	5.248
370.10	5.116
370.46	4.731
370.82	4.420
371.18	5.071
371.54	5.298
371.90	5.075
372.26	4.622
372.62	4.666
372.98	4.951
373.33	5.063
373.69	4.430
374.05	4.707
374.41	4.683
374.77	4.763
375.13	5.160
375.49	5.099
375.85	5.009
376.21	4.378
376.57	5.038
376.93	4.802
377.29	4.533
377.65	4.139
378.01	4.658
378.37	3.825
378.73	4.345
379.08	4.687
379.44	4.949
379.80	4.807
380.16	5.000
380.52	4.085
380.88	4.818
381.24	5.028
381.60	4.882
381.96	5.088
382.32	5.140
382.67	4.981
383.03	5.185
383.39	5.648
383.75	5.388
384.11	5.329
384.47	5.567
384.83	5.430
385.19	5.564
385.54	5.586
385.90	5.331
386.26	5.178
386.62	5.714
386.98	5.500
387.34	5.606
387.70	5.525
388.05	6.279
388.41	6.070
388.77	6.081
389.13	5.979
389.49	6.291
389.85	6.325
390.20	6.332
390.56	6.412
390.92	6.332
391.28	6.547
391.64	6.768
391.99	6.930
392.35	6.833
392.71	7.056
393.07	7.202
393.43	6.961
393.78	7.357
394.14	7.624
394.50	7.447
394.86	7.426
395.22	7.261
395.57	7.651
395.93	7.657
396.29	8.085
396.65	7.797
397.00	8.391
397.36	8.343
397.72	7.716
398.08	7.873
398.43	8.066
398.79	8.558
399.15	8.453
399.51	8.978
399.86	8.850
400.22	8.792
400.58	8.733
400.94	9.067
401.29	9.036
401.65	9.279
402.01	9.002
402.37	9.641
402.72	9.476
403.08	9.563
403.44	9.532
403.79	9.356
404.15	9.906
404.51	9.933
404.86	9.902
405.22	10.021
405.58	9.782
405.94	10.385
406.29	10.143
406.65	10.519
407.01	10.718
407.36	10.618
407.72	10.722
408.08	10.886
408.43	11.025
408.79	11.046
409.15	11.298
409.50	11.637
409.86	11.503
410.22	11.477
410.57	11.797
410.93	11.922
411.29	11.974
411.64	12.056
412.00	12.068
412.35	12.138
412.71	12.198
413.07	12.513
413.42	12.392
413.78	12.562
414.14	12.664
414.49	12.812
414.85	12.797
415.20	12.989
415.56	13.307
415.92	13.120
416.27	13.381
416.63	13.334
416.98	13.577
417.34	13.642
417.70	13.656
418.05	13.742
418.41	13.835
418.76	14.197
419.12	13.906
419.47	14.364
419.83	14.250
420.19	14.536
420.54	14.381
420.90	14.626
421.25	14.707
421.61	14.773
421.96	14.809
422.32	14.847
422.67	15.024
423.03	15.285
423.39	15.224
423.74	15.377
424.10	15.392
424.45	15.507
424.81	15.774
425.16	15.740
425.52	15.833
425.87	16.140
426.23	16.184
426.58	16.474
426.94	16.266
427.29	16.394
427.65	16.445
428.00	16.574
428.36	16.720
428.71	16.686
429.07	16.839
429.42	16.878
429.78	17.032
430.13	17.300
430.49	17.215
430.84	17.232
431.19	17.422
431.55	17.583
431.90	17.699
432.26	17.742
432.61	17.904
432.97	18.041
433.32	17.974
433.68	18.092
434.03	18.330
434.39	18.349
434.74	18.479
435.09	18.471
435.45	18.729
435.80	18.703
436.16	18.757
436.51	18.807
436.86	18.960
437.22	18.939
437.57	19.164
437.93	19.098
438.28	19.217
438.63	19.201
438.99	19.470
439.34	19.482
439.70	19.578
440.05	19.716
440.40	19.668
440.76	19.746
441.11	19.741
441.47	19.878
441.82	20.083
442.17	20.103
442.53	20.145
442.88	20.151
443.23	20.273
443.59	20.427
443.94	20.449
444.29	20.454
444.65	20.676
445.00	20.725
445.35	20.835
445.71	20.824
446.06	20.906
446.41	21.084
446.77	21.154
447.12	21.139
447.47	21.291
447.83	21.369
448.18	21.295
448.53	21.597
448.89	21.616
449.24	21.548
449.59	21.807
449.94	21.768
450.30	22.030
450.65	21.891
451.00	22.016
451.36	22.185
451.71	22.180
452.06	22.390
452.41	22.294
452.77	22.633
453.12	22.553
453.47	22.591
453.82	22.748
454.18	22.953
454.53	22.836
454.88	22.924
455.23	23.058
455.59	23.281
455.94	23.205
456.29	23.139
456.64	23.434
457.00	23.651
457.35	23.624
457.70	23.637
458.05	23.793
458.40	23.772
458.76	23.819
459.11	23.875
459.46	24.089
459.81	24.178
460.16	24.200
460.52	24.240
460.87	24.429
461.22	24.488
461.57	24.619
461.92	24.733
462.28	24.610
462.63	24.750
462.98	24.942
463.33	24.962
463.68	24.988
464.03	25.027
464.38	25.026
464.74	25.340
465.09	25.413
465.44	25.394
465.79	25.367
466.14	25.477
466.49	25.432
466.84	25.526
467.20	25.603
467.55	25.725
467.90	25.854
468.25	25.621
468.60	25.862
468.95	25.967
469.30	25.901
469.65	26.071
470.00	26.083
470.36	26.003
470.71	26.163
471.06	26.200
471.41	26.303
471.76	26.200
472.11	26.298
472.46	26.302
472.81	26.448
473.16	26.411
473.51	26.475
473.86	26.499
474.21	26.471
474.56	26.489
474.91	26.435
475.26	26.437
475.62	26.506
475.97	26.490
476.32	26.516
476.67	26.529
477.02	26.521
477.37	26.544
477.72	26.513
478.07	26.470
478.42	26.595
478.77	26.660
479.12	26.507
479.47	26.547
479.82	26.512
480.17	26.533
480.52	26.483
480.87	26.511
481.22	26.538
481.57	26.469
481.92	26.512
482.27	26.551
482.62	26.450
482.97	26.443
483.32	26.502
483.67	26.442
484.02	26.365
484.36	26.415
484.71	26.414
485.06	26.451
485.41	26.456
485.76	26.475
486.11	26.506
486.46	26.473
486.81	26.502
487.16	26.540
487.51	26.651
487.86	26.649
488.21	26.699
488.56	26.751
488.91	26.761
489.25	26.841
489.60	26.889
489.95	26.964
490.30	26.978
490.65	27.168
491.00	27.201
491.35	27.282
491.70	27.343
492.05	27.295
492.39	27.342
492.74	27.440
493.09	27.589
493.44	27.562
493.79	27.767
494.14	27.734
494.49	27.761
494.83	27.914
495.18	28.013
495.53	28.076
495.88	28.050
496.23	28.235
496.58	28.309
496.92	28.400
497.27	28.409
497.62	28.550
497.97	28.569
498.32	28.722
498.67	28.676
499.01	28.821
499.36	28.862
499.71	29.037
500.06	28.986
500.41	29.117
500.75	29.121
501.10	29.191
501.45	29.289
501.80	29.395
502.14	29.402
502.49	29.539
502.84	29.541
503.19	29.595
503.53	29.612
503.88	29.674
504.23	29.703
504.58	29.727
504.92	29.764
505.27	29.795
505.62	29.879
505.97	29.920
506.31	29.982
506.66	30.005
507.01	30.005
507.36	30.032
507.70	30.072
508.05	30.036
508.40	30.004
508.74	30.016
509.09	30.050
509.44	29.990
509.79	29.906
510.13	29.966
510.48	29.923
510.83	29.952
511.17	29.923
511.52	29.886
511.87	29.869
512.21	29.867
512.56	29.858
512.91	29.920
513.25	29.955
513.60	29.959
513.95	30.021
514.29	30.116
514.64	30.088
514.98	30.175
515.33	30.141
515.68	30.122
516.02	30.303
516.37	30.266
516.72	30.387
517.06	30.342
517.41	30.450
517.75	30.462
518.10	30.553
518.45	30.512
518.79	30.553
519.14	30.653
519.48	30.603
519.83	30.645
520.18	30.767
520.52	30.642
520.87	30.690
521.21	30.787
521.56	30.752
521.90	30.738
522.25	30.794
522.60	30.794
522.94	30.788
523.29	30.821
523.63	30.862
523.98	30.802
524.32	30.771
524.67	30.747
525.01	30.787
525.36	30.805
525.70	30.824
526.05	30.682
526.39	30.653
526.74	30.617
527.08	30.643
527.43	30.509
527.77	30.505
528.12	30.413
528.46	30.356
528.81	30.326
529.15	30.250
529.50	30.164
529.84	30.003
530.19	30.019
530.53	29.924
530.88	29.755
531.22	29.697
531.57	29.529
531.91	29.457
532.26	29.287
532.60	29.168
532.94	29.006
533.29	28.878
533.63	28.672
533.98	28.468
534.32	28.393
534.67	28.150
535.01	27.967
535.35	27.811
535.70	27.626
536.04	27.458
536.39	27.190
536.73	27.018
537.07	26.785
537.42	26.565
537.76	26.408
538.11	26.160
538.45	25.909
538.79	25.712
539.14	25.463
539.48	25.346
539.82	25.171
540.17	24.962
540.51	24.793
540.85	24.662
541.20	24.388
541.54	24.276
541.89	24.137
542.23	24.010
542.57	23.875
542.92	23.801
543.26	23.718
543.60	23.493
543.94	23.570
544.29	23.431
544.63	23.367
544.97	23.263
545.32	23.317
545.66	23.321
546.00	23.312
546.35	23.284
546.69	23.290
547.03	23.278
547.37	23.313
547.72	23.349
548.06	23.398
548.40	23.435
548.75	23.473
549.09	23.600
549.43	23.574
549.77	23.687
550.12	23.758
550.46	23.901
550.80	24.012
551.14	24.044
551.49	24.150
551.83	24.362
552.17	24.476
552.51	24.577
552.85	24.777
553.20	24.975
553.54	25.095
553.88	25.331
554.22	25.448
554.56	25.615
554.91	25.919
555.25	26.187
555.59	26.330
555.93	26.642
556.27	26.823
556.62	27.065
556.96	27.424
557.30	27.558
557.64	27.821
557.98	28.139
558.32	28.362
558.67	28.613
559.01	28.906
559.35	29.100
559.69	29.389
560.03	29.607
560.37	29.860
560.71	30.083
561.05	30.344
561.40	30.507
561.74	30.754
562.08	31.058
562.42	31.244
562.76	31.373
563.10	31.663
563.44	31.835
563.78	31.964
564.12	32.199
564.46	32.361
564.81	32.539
565.15	32.678
565.49	32.765
565.83	32.938
566.17	32.971
566.51	33.082
566.85	33.255
567.19	33.329
567.53	33.352
567.87	33.489
568.21	33.519
568.55	33.502
568.89	33.616
569.23	33.608
569.57	33.606
569.91	33.586
570.25	33.644
570.59	33.607
570.93	33.644
571.27	33.558
571.61	33.580
571.95	33.490
572.29	33.432
572.63	33.299
572.97	33.276
573.31	33.266
573.65	33.157
573.99	33.009
574.33	32.970
574.67	32.893
575.01	32.739
575.35	32.622
575.69	32.514
576.03	32.416
576.37	32.327
576.71	32.182
577.05	32.075
577.39	31.884
577.73	31.733
578.06	31.560
578.40	31.419
578.74	31.237
579.08	31.024
579.42	30.921
579.76	30.694
580.10	30.468
580.44	30.296
580.78	30.050
581.12	29.900
581.45	29.646
581.79	29.538
582.13	29.311
582.47	29.179
582.81	28.903
583.15	28.736
583.49	28.598
583.83	28.437
584.16	28.214
584.50	28.089
584.84	28.002
585.18	27.759
585.52	27.591
585.86	27.438
586.19	27.226
586.53	27.222
586.87	27.079
587.21	26.807
587.55	26.622
587.88	26.541
588.22	26.392
588.56	26.165
588.90	25.968
589.24	25.751
589.57	25.556
589.91	25.362
590.25	25.132
590.59	24.958
590.92	24.760
591.26	24.466
591.60	24.207
591.94	24.058
592.27	23.844
592.61	23.523
592.95	23.266
593.29	23.034
593.62	22.724
593.96	22.384
594.30	22.075
594.64	21.744
594.97	21.482
595.31	21.060
595.65	20.689
595.98	20.255
596.32	19.873
596.66	19.498
597.00	19.011
597.33	18.575
597.67	18.203
598.01	17.624
598.34	17.221
598.68	16.802
599.02	16.307
599.35	15.885
599.69	15.446
600.03	15.087
600.36	14.687
600.70	14.364
601.03	14.030
601.37	13.714
601.71	13.406
602.04	13.124
602.38	12.829
602.72	12.557
603.05	12.301
603.39	12.016
603.72	11.778
604.06	11.515
604.40	11.244
604.73	10.985
605.07	10.670
605.40	10.414
605.74	10.150
606.08	9.853
606.41	9.568
606.75	9.282
607.08	9.006
607.42	8.720
607.75	8.429
608.09	8.148
608.42	7.892
608.76	7.623
609.10	7.347
609.43	7.050
609.77	6.831
610.10	6.508
610.44	6.239
610.77	6.015
611.11	5.788
611.44	5.567
611.78	5.308
612.11	5.089
612.45	4.841
612.78	4.605
613.12	4.408
613.45	4.218
613.79	4.028
614.12	3.818
614.46	3.632
614.79	3.498
615.13	3.327
615.46	3.184
615.79	3.027
616.13	2.904
616.46	2.790
616.80	2.667
617.13	2.574
617.47	2.468
617.80	2.398
618.13	2.303
618.47	2.212
618.80	2.134
619.14	2.063
619.47	2.008
619.81	1.955
620.14	1.890
620.47	1.821
620.81	1.760
621.14	1.715
621.47	1.682
621.81	1.632
622.14	1.582
622.48	1.566
622.81	1.513
623.14	1.487
623.48	1.444
623.81	1.398
624.14	1.383
624.48	1.393
624.81	1.342
625.14	1.304
625.48	1.344
625.81	1.286
626.14	1.294
626.48	1.281
626.81	1.301
627.14	1.303
627.48	1.297
627.81	1.313
628.14	1.319
628.47	1.363
628.81	1.363
629.14	1.403
629.47	1.400
629.81	1.465
630.14	1.481
630.47	1.549
630.80	1.576
631.14	1.652
631.47	1.723
631.80	1.784
632.13	1.840
632.47	1.946
632.80	2.040
633.13	2.113
633.46	2.236
633.79	2.361
634.13	2.474
634.46	2.618
634.79	2.774
635.12	2.893
635.45	3.035
635.79	3.255
636.12	3.408
636.45	3.588
636.78	3.786
637.11	3.993
637.45	4.236
637.78	4.422
638.11	4.678
638.44	4.865
638.77	5.140
639.10	5.391
639.44	5.605
639.77	5.878
640.10	6.146
640.43	6.417
640.76	6.645
641.09	6.918
641.42	7.178
641.75	7.476
642.08	7.734
642.42	7.969
642.75	8.286
643.08	8.534
643.41	8.777
643.74	9.037
644.07	9.310
