SpectraSuite Data File
++++++++++++++++++++++++++++++++++++
Date: Tue Apr 28 18:52:33 BST 2015
User: mpfc3
Dark Spectrum Present: Yes
Reference Spectrum Present: Yes
Number of Sampled Component Spectra: 1
Spectrometers: USB2E3636
Integration Time (usec): 30000 (USB2E3636)
Spectra Averaged: 100 (USB2E3636)
Boxcar Smoothing: 0 (USB2E3636)
Correct for Electrical Dark: No (USB2E3636)
Strobe/Lamp Enabled: No (USB2E3636)
Correct for Detector Non-linearity: No (USB2E3636)
Correct for Stray Light: No (USB2E3636)
Number of Pixels in Processed Spectrum: 2048
>>>>>Begin Processed Spectral Data<<<<<
180.28	0.000
180.65	158.444
181.02	151.892
181.39	173.640
181.77	166.402
182.14	174.947
182.51	168.081
182.88	174.895
183.25	172.041
183.63	164.730
184.00	194.458
184.37	159.787
184.74	155.952
185.11	187.892
185.49	171.186
185.86	160.297
186.23	197.921
186.60	171.934
186.97	168.966
187.35	173.774
187.72	183.893
188.09	157.753
188.46	178.602
188.83	173.251
189.20	-843.158
189.58	-41.735
189.95	-46.890
190.32	-45.867
190.69	-47.770
191.06	-46.100
191.43	-47.730
191.81	-45.231
192.18	-44.248
192.55	-43.310
192.92	-50.501
193.29	-41.685
193.66	-47.424
194.03	-43.049
194.41	-46.667
194.78	-45.000
195.15	-44.919
195.52	-45.492
195.89	-40.546
196.26	-40.487
196.63	-48.387
197.01	-44.376
197.38	-45.798
197.75	-46.256
198.12	-47.488
198.49	-45.398
198.86	-47.939
199.23	-43.992
199.60	-50.996
199.98	-45.557
200.35	-50.663
200.72	-43.340
201.09	-46.901
201.46	-45.335
201.83	-54.068
202.20	-40.679
202.57	-47.650
202.94	-47.829
203.31	-41.701
203.69	-42.178
204.06	-49.647
204.43	-43.645
204.80	-50.180
205.17	-45.198
205.54	-49.414
205.91	-43.398
206.28	-47.540
206.65	-49.855
207.02	-47.982
207.39	-51.370
207.76	-49.297
208.14	-47.989
208.51	-47.274
208.88	-48.578
209.25	-47.810
209.62	-46.114
209.99	-44.162
210.36	-48.229
210.73	-45.657
211.10	-48.762
211.47	-50.724
211.84	-57.598
212.21	-46.442
212.58	-47.433
212.95	-47.674
213.32	-49.315
213.69	-59.645
214.06	-51.052
214.43	-49.481
214.80	-48.273
215.17	-47.332
215.55	-51.490
215.92	-48.764
216.29	-51.735
216.66	-56.317
217.03	-49.844
217.40	-52.104
217.77	-51.885
218.14	-56.260
218.51	-55.310
218.88	-54.403
219.25	-50.321
219.62	-56.050
219.99	-49.192
220.36	-49.961
220.73	-52.331
221.10	-53.097
221.47	-55.047
221.84	-56.723
222.21	-56.942
222.58	-53.260
222.95	-54.478
223.32	-53.728
223.69	-56.589
224.06	-56.186
224.43	-57.191
224.80	-60.352
225.17	-63.209
225.54	-63.130
225.91	-52.667
226.27	-52.134
226.64	-56.483
227.01	-60.940
227.38	-54.130
227.75	-56.597
228.12	-60.517
228.49	-57.852
228.86	-56.620
229.23	-55.247
229.60	-58.621
229.97	-60.925
230.34	-61.076
230.71	-60.403
231.08	-64.412
231.45	-63.922
231.82	-59.119
232.19	-70.923
232.56	-56.749
232.93	-65.300
233.30	-53.509
233.66	-65.936
234.03	-58.180
234.40	-62.373
234.77	-60.489
235.14	-72.736
235.51	-58.824
235.88	-61.569
236.25	-65.734
236.62	-66.215
236.99	-76.166
237.36	-64.496
237.73	-65.143
238.09	-60.079
238.46	-70.166
238.83	-76.285
239.20	-63.627
239.57	-70.576
239.94	-68.305
240.31	-68.182
240.68	-57.730
241.05	-67.579
241.41	-65.706
241.78	-61.155
242.15	-71.737
242.52	-68.214
242.89	-68.744
243.26	-69.191
243.63	-68.676
244.00	-69.870
244.36	-72.356
244.73	-73.191
245.10	-77.996
245.47	-70.878
245.84	-71.458
246.21	-67.144
246.58	-65.331
246.94	-65.147
247.31	-71.309
247.68	-74.812
248.05	-69.737
248.42	-67.732
248.79	-77.008
249.15	-71.273
249.52	-64.075
249.89	-72.086
250.26	-64.905
250.63	-76.504
251.00	-75.386
251.36	-73.311
251.73	-71.811
252.10	-71.011
252.47	-72.446
252.84	-80.930
253.20	-79.725
253.57	-74.972
253.94	-75.221
254.31	-60.671
254.68	-70.769
255.05	-68.386
255.41	-71.783
255.78	-74.305
256.15	-72.402
256.52	-79.715
256.88	-74.531
257.25	-77.427
257.62	-86.962
257.99	-83.848
258.36	-92.739
258.72	-76.169
259.09	-68.797
259.46	-87.789
259.83	-88.067
260.19	-70.829
260.56	-85.538
260.93	-77.327
261.30	-78.235
261.67	-84.353
262.03	-78.673
262.40	-80.216
262.77	-80.233
263.14	-76.828
263.50	-72.768
263.87	-79.496
264.24	-69.392
264.61	-75.057
264.97	-88.019
265.34	-65.739
265.71	-77.804
266.07	-85.956
266.44	-74.973
266.81	-81.455
267.18	-83.890
267.54	-76.758
267.91	-75.167
268.28	-70.634
268.64	-86.829
269.01	-74.714
269.38	-80.820
269.75	-86.326
270.11	-87.329
270.48	-92.848
270.85	-78.186
271.21	-74.793
271.58	-81.401
271.95	-79.632
272.32	-80.993
272.68	-83.393
273.05	-79.157
273.42	-87.173
273.78	-79.924
274.15	-76.716
274.52	-74.049
274.88	-83.922
275.25	-78.085
275.62	-81.585
275.98	-74.824
276.35	-86.291
276.72	-78.072
277.08	-82.410
277.45	-82.013
277.82	-92.765
278.18	-91.310
278.55	-81.784
278.92	-81.512
279.28	-92.186
279.65	-68.354
280.01	-80.912
280.38	-71.516
280.75	-89.912
281.11	-81.893
281.48	-79.810
281.85	-77.252
282.21	-96.164
282.58	-81.442
282.95	-69.659
283.31	-90.399
283.68	-80.864
284.04	-72.228
284.41	-86.005
284.78	-67.475
285.14	-79.018
285.51	-64.342
285.87	-89.651
286.24	-78.429
286.61	-81.635
286.97	-78.490
287.34	-81.481
287.70	-74.646
288.07	-85.645
288.44	-68.136
288.80	-77.544
289.17	-75.624
289.53	-88.278
289.90	-83.333
290.26	-87.748
290.63	-84.938
291.00	-89.133
291.36	-80.793
291.73	-81.065
292.09	-77.998
292.46	-85.077
292.82	-69.724
293.19	-82.683
293.56	-72.727
293.92	-68.821
294.29	-78.899
294.65	-76.636
295.02	-72.386
295.38	-71.657
295.75	-77.110
296.11	-78.934
296.48	-70.411
296.84	-72.308
297.21	-68.771
297.57	-83.575
297.94	-86.752
298.30	-76.485
298.67	-75.895
299.04	-64.680
299.40	-74.234
299.77	-78.752
300.13	-71.833
300.50	-76.107
300.86	-82.651
301.23	-70.773
301.59	-71.014
301.96	-68.820
302.32	-71.792
302.69	-86.555
303.05	-73.589
303.42	-76.303
303.78	-74.344
304.14	-67.606
304.51	-67.573
304.87	-71.320
305.24	-75.171
305.60	-67.017
305.97	-67.072
306.33	-69.483
306.70	-65.034
307.06	-68.365
307.43	-64.533
307.79	-67.358
308.16	-64.668
308.52	-60.000
308.88	-63.030
309.25	-74.187
309.61	-68.557
309.98	-71.183
310.34	-72.818
310.71	-66.490
311.07	-66.055
311.44	-71.204
311.80	-63.703
312.16	-59.037
312.53	-65.496
312.89	-62.622
313.26	-62.114
313.62	-50.773
313.98	-54.239
314.35	-60.916
314.71	-57.024
315.08	-59.677
315.44	-50.879
315.80	-56.716
316.17	-56.554
316.53	-52.743
316.90	-55.495
317.26	-52.162
317.62	-58.092
317.99	-61.370
318.35	-61.065
318.72	-55.722
319.08	-55.937
319.44	-58.416
319.81	-56.328
320.17	-50.595
320.53	-52.373
320.90	-53.735
321.26	-58.594
321.62	-56.514
321.99	-54.530
322.35	-52.496
322.72	-51.896
323.08	-53.102
323.44	-48.790
323.81	-41.325
324.17	-60.471
324.53	-47.736
324.90	-47.792
325.26	-44.784
325.62	-50.881
325.99	-45.890
326.35	-43.319
326.71	-45.481
327.08	-43.844
327.44	-41.351
327.80	-40.338
328.16	-36.998
328.53	-42.836
328.89	-45.641
329.25	-42.135
329.62	-35.189
329.98	-29.675
330.34	-37.790
330.71	-37.653
331.07	-39.987
331.43	-39.390
331.79	-29.077
332.16	-33.622
332.52	-36.032
332.88	-32.108
333.24	-33.770
333.61	-31.296
333.97	-30.058
334.33	-35.079
334.70	-30.015
335.06	-31.986
335.42	-31.904
335.78	-31.106
336.15	-28.828
336.51	-25.982
336.87	-30.934
337.23	-28.435
337.60	-28.748
337.96	-27.508
338.32	-26.649
338.68	-22.241
339.04	-26.039
339.41	-26.426
339.77	-21.701
340.13	-20.942
340.49	-20.593
340.86	-26.314
341.22	-23.942
341.58	-23.276
341.94	-24.932
342.30	-23.588
342.67	-21.928
343.03	-22.156
343.39	-20.604
343.75	-18.689
344.11	-19.964
344.48	-22.573
344.84	-20.368
345.20	-21.245
345.56	-18.707
345.92	-18.910
346.28	-17.796
346.65	-18.196
347.01	-17.804
347.37	-19.209
347.73	-17.538
348.09	-19.314
348.45	-14.868
348.82	-17.976
349.18	-15.696
349.54	-17.336
349.90	-15.398
350.26	-16.905
350.62	-14.896
350.98	-13.845
351.35	-15.090
351.71	-13.503
352.07	-13.145
352.43	-14.318
352.79	-14.980
353.15	-14.265
353.51	-15.261
353.87	-12.449
354.24	-12.817
354.60	-13.993
354.96	-12.801
355.32	-12.751
355.68	-12.209
356.04	-11.908
356.40	-12.228
356.76	-12.094
357.12	-10.255
357.48	-11.881
357.85	-12.570
358.21	-12.184
358.57	-10.536
358.93	-12.411
359.29	-10.827
359.65	-11.193
360.01	-11.310
360.37	-9.230
360.73	-10.433
361.09	-10.719
361.45	-9.250
361.81	-9.565
362.17	-9.893
362.53	-8.906
362.89	-9.485
363.25	-10.417
363.62	-8.767
363.98	-10.260
364.34	-8.324
364.70	-9.003
365.06	-8.437
365.42	-8.243
365.78	-7.742
366.14	-7.689
366.50	-7.636
366.86	-6.507
367.22	-8.585
367.58	-6.208
367.94	-8.200
368.30	-7.675
368.66	-6.432
369.02	-7.285
369.38	-6.227
369.74	-7.037
370.10	-6.396
370.46	-6.566
370.82	-6.332
371.18	-6.718
371.54	-5.985
371.90	-6.787
372.26	-4.945
372.62	-5.585
372.98	-5.723
373.33	-6.042
373.69	-5.870
374.05	-5.331
374.41	-6.132
374.77	-5.604
375.13	-3.909
375.49	-4.198
375.85	-4.865
376.21	-4.334
376.57	-5.052
376.93	-4.720
377.29	-4.313
377.65	-3.859
378.01	-4.097
378.37	-4.123
378.73	-4.048
379.08	-3.959
379.44	-4.003
379.80	-3.968
380.16	-3.740
380.52	-4.252
380.88	-3.675
381.24	-3.421
381.60	-3.289
381.96	-2.804
382.32	-2.525
382.67	-2.845
383.03	-2.494
383.39	-1.500
383.75	-2.579
384.11	-2.255
384.47	-2.273
384.83	-2.362
385.19	-2.161
385.54	-1.694
385.90	-1.512
386.26	-1.658
386.62	-1.868
386.98	-1.344
387.34	-1.238
387.70	-0.631
388.05	-0.465
388.41	-0.710
388.77	-0.949
389.13	0.107
389.49	-0.220
389.85	0.476
390.20	0.166
390.56	0.662
390.92	0.896
391.28	0.300
391.64	0.338
391.99	1.009
392.35	0.804
392.71	1.151
393.07	0.993
393.43	1.184
393.78	1.458
394.14	1.518
394.50	1.702
394.86	1.975
395.22	2.175
395.57	2.137
395.93	2.377
396.29	2.415
396.65	2.856
397.00	2.908
397.36	2.789
397.72	2.487
398.08	3.296
398.43	3.288
398.79	3.410
399.15	3.243
399.51	3.923
399.86	3.928
400.22	4.151
400.58	3.941
400.94	4.334
401.29	4.628
401.65	5.023
402.01	4.957
402.37	5.034
402.72	5.267
403.08	5.320
403.44	5.438
403.79	5.594
404.15	5.776
404.51	5.489
404.86	5.970
405.22	6.362
405.58	6.587
405.94	6.416
406.29	6.706
406.65	7.073
407.01	6.865
407.36	6.889
407.72	7.572
408.08	6.962
408.43	7.217
408.79	7.530
409.15	7.640
409.50	7.547
409.86	7.787
410.22	8.349
410.57	8.294
410.93	8.217
411.29	8.632
411.64	8.842
412.00	9.065
412.35	9.139
412.71	8.977
413.07	9.270
413.42	9.323
413.78	9.563
414.14	9.882
414.49	9.785
414.85	9.910
415.20	10.162
415.56	10.361
415.92	10.546
416.27	10.446
416.63	11.028
416.98	10.642
417.34	10.941
417.70	11.014
418.05	11.376
418.41	11.111
418.76	11.471
419.12	11.519
419.47	11.879
419.83	11.922
420.19	12.186
420.54	12.253
420.90	12.176
421.25	12.598
421.61	12.558
421.96	12.456
422.32	12.584
422.67	13.056
423.03	12.975
423.39	13.277
423.74	13.244
424.10	13.165
424.45	13.629
424.81	13.648
425.16	13.754
425.52	14.099
425.87	14.036
426.23	14.304
426.58	14.373
426.94	14.403
427.29	14.799
427.65	14.709
428.00	14.669
428.36	14.959
428.71	15.214
429.07	15.372
429.42	15.346
429.78	15.556
430.13	15.528
430.49	15.771
430.84	15.874
431.19	16.029
431.55	16.017
431.90	16.219
432.26	16.229
432.61	16.438
432.97	16.439
433.32	16.858
433.68	16.896
434.03	17.024
434.39	16.899
434.74	17.235
435.09	17.310
435.45	17.316
435.80	17.649
436.16	17.630
436.51	17.736
436.86	17.926
437.22	17.957
437.57	18.216
437.93	18.226
438.28	18.380
438.63	18.534
438.99	18.567
439.34	18.540
439.70	18.719
440.05	18.705
440.40	19.140
440.76	19.048
441.11	19.266
441.47	19.306
441.82	19.400
442.17	19.460
442.53	19.721
442.88	19.657
443.23	19.828
443.59	19.781
443.94	20.101
444.29	20.115
444.65	20.329
445.00	20.466
445.35	20.389
445.71	20.650
446.06	20.620
446.41	20.700
446.77	20.833
447.12	20.866
447.47	20.888
447.83	20.991
448.18	21.113
448.53	21.171
448.89	21.501
449.24	21.515
449.59	21.672
449.94	21.635
450.30	21.850
450.65	21.792
451.00	22.110
451.36	22.152
451.71	22.143
452.06	22.383
452.41	22.419
452.77	22.561
453.12	22.592
453.47	22.824
453.82	22.791
454.18	23.037
454.53	22.864
454.88	23.071
455.23	23.147
455.59	23.478
455.94	23.428
456.29	23.630
456.64	23.501
457.00	23.870
457.35	23.865
457.70	23.909
458.05	24.018
458.40	24.222
458.76	24.291
459.11	24.360
459.46	24.479
459.81	24.446
460.16	24.599
460.52	24.599
460.87	24.834
461.22	24.849
461.57	25.103
461.92	25.078
462.28	25.218
462.63	25.189
462.98	25.315
463.33	25.398
463.68	25.640
464.03	25.723
464.38	25.781
464.74	25.742
465.09	25.941
465.44	26.061
465.79	26.179
466.14	26.192
466.49	26.199
466.84	26.449
467.20	26.319
467.55	26.544
467.90	26.451
468.25	26.670
468.60	26.691
468.95	26.877
469.30	26.829
469.65	26.929
470.00	27.043
470.36	27.218
470.71	27.102
471.06	27.222
471.41	27.308
471.76	27.372
472.11	27.397
472.46	27.387
472.81	27.523
473.16	27.588
473.51	27.610
473.86	27.686
474.21	27.682
474.56	27.669
474.91	27.700
475.26	27.759
475.62	27.903
475.97	27.722
476.32	27.870
476.67	27.903
477.02	27.791
477.37	27.857
477.72	27.970
478.07	28.015
478.42	27.919
478.77	27.993
479.12	27.862
479.47	27.978
479.82	27.895
480.17	27.995
480.52	27.908
480.87	27.999
481.22	27.983
481.57	27.970
481.92	27.997
482.27	27.950
482.62	28.085
482.97	28.008
483.32	28.041
483.67	28.021
484.02	28.049
484.36	28.042
484.71	28.077
485.06	28.197
485.41	28.099
485.76	28.077
486.11	28.226
486.46	28.272
486.81	28.272
487.16	28.246
487.51	28.349
487.86	28.428
488.21	28.532
488.56	28.541
488.91	28.563
489.25	28.731
489.60	28.779
489.95	28.760
490.30	28.838
490.65	28.893
491.00	28.988
491.35	29.013
491.70	29.065
492.05	29.182
492.39	29.300
492.74	29.312
493.09	29.452
493.44	29.497
493.79	29.629
494.14	29.649
494.49	29.677
494.83	29.830
495.18	29.878
495.53	29.872
495.88	29.993
496.23	30.178
496.58	30.238
496.92	30.334
497.27	30.412
497.62	30.512
497.97	30.546
498.32	30.667
498.67	30.768
499.01	30.806
499.36	30.817
499.71	30.898
500.06	31.018
500.41	31.058
500.75	31.133
501.10	31.300
501.45	31.344
501.80	31.336
502.14	31.408
502.49	31.465
502.84	31.483
503.19	31.584
503.53	31.587
503.88	31.745
504.23	31.730
504.58	31.810
504.92	31.907
505.27	31.880
505.62	31.915
505.97	31.936
506.31	32.064
506.66	32.069
507.01	32.025
507.36	32.002
507.70	32.100
508.05	32.031
508.40	32.018
508.74	32.070
509.09	31.992
509.44	31.998
509.79	31.957
510.13	31.932
510.48	31.936
510.83	31.830
511.17	31.906
511.52	31.846
511.87	31.859
512.21	31.818
512.56	31.796
512.91	31.899
513.25	31.879
513.60	31.893
513.95	31.944
514.29	32.003
514.64	32.052
514.98	31.995
515.33	32.053
515.68	32.125
516.02	32.248
516.37	32.189
516.72	32.160
517.06	32.246
517.41	32.278
517.75	32.310
518.10	32.345
518.45	32.374
518.79	32.352
519.14	32.467
519.48	32.490
519.83	32.518
520.18	32.465
520.52	32.455
520.87	32.511
521.21	32.577
521.56	32.565
521.90	32.521
522.25	32.609
522.60	32.480
522.94	32.559
523.29	32.593
523.63	32.529
523.98	32.575
524.32	32.569
524.67	32.514
525.01	32.428
525.36	32.379
525.70	32.348
526.05	32.409
526.39	32.245
526.74	32.272
527.08	32.263
527.43	32.155
527.77	32.034
528.12	31.961
528.46	31.952
528.81	31.835
529.15	31.826
529.50	31.669
529.84	31.581
530.19	31.427
530.53	31.424
530.88	31.229
531.22	31.110
531.57	31.014
531.91	30.915
532.26	30.698
532.60	30.629
532.94	30.377
533.29	30.242
533.63	30.060
533.98	29.878
534.32	29.747
534.67	29.531
535.01	29.244
535.35	29.031
535.70	28.866
536.04	28.647
536.39	28.405
536.73	28.212
537.07	27.952
537.42	27.732
537.76	27.494
538.11	27.258
538.45	27.088
538.79	26.803
539.14	26.555
539.48	26.440
539.82	26.220
540.17	26.033
540.51	25.826
540.85	25.642
541.20	25.397
541.54	25.257
541.89	25.076
542.23	24.929
542.57	24.783
542.92	24.663
543.26	24.611
543.60	24.483
543.94	24.377
544.29	24.304
544.63	24.224
544.97	24.205
545.32	24.157
545.66	24.074
546.00	24.123
546.35	24.088
546.69	24.111
547.03	24.086
547.37	24.119
547.72	24.154
548.06	24.185
548.40	24.215
548.75	24.301
549.09	24.324
549.43	24.398
549.77	24.463
550.12	24.538
550.46	24.673
550.80	24.733
551.14	24.831
551.49	24.881
551.83	25.118
552.17	25.228
552.51	25.334
552.85	25.462
553.20	25.618
553.54	25.843
553.88	26.035
554.22	26.243
554.56	26.458
554.91	26.718
555.25	26.875
555.59	27.094
555.93	27.354
556.27	27.561
556.62	27.789
556.96	28.132
557.30	28.343
557.64	28.559
557.98	28.890
558.32	29.088
558.67	29.357
559.01	29.625
559.35	29.773
559.69	30.082
560.03	30.340
560.37	30.614
560.71	30.865
561.05	31.116
561.40	31.317
561.74	31.555
562.08	31.767
562.42	31.923
562.76	32.180
563.10	32.348
563.44	32.543
563.78	32.714
564.12	32.932
564.46	33.048
564.81	33.217
565.15	33.372
565.49	33.496
565.83	33.585
566.17	33.755
566.51	33.888
566.85	34.006
567.19	33.980
567.53	34.104
567.87	34.274
568.21	34.222
568.55	34.243
568.89	34.293
569.23	34.362
569.57	34.355
569.91	34.320
570.25	34.304
570.59	34.327
570.93	34.372
571.27	34.328
571.61	34.269
571.95	34.192
572.29	34.178
572.63	34.099
572.97	34.026
573.31	33.925
573.65	33.839
573.99	33.783
574.33	33.674
574.67	33.526
575.01	33.382
575.35	33.345
575.69	33.220
576.03	33.117
576.37	32.968
576.71	32.845
577.05	32.708
577.39	32.597
577.73	32.348
578.06	32.253
578.40	32.045
578.74	31.888
579.08	31.666
579.42	31.559
579.76	31.312
580.10	31.111
580.44	30.906
580.78	30.698
581.12	30.448
581.45	30.331
581.79	30.039
582.13	29.905
582.47	29.744
582.81	29.474
583.15	29.325
583.49	29.132
583.83	28.909
584.16	28.798
584.50	28.601
584.84	28.515
585.18	28.302
585.52	28.123
585.86	28.020
586.19	27.784
586.53	27.652
586.87	27.569
587.21	27.308
587.55	27.118
587.88	27.029
588.22	26.871
588.56	26.654
588.90	26.448
589.24	26.238
589.57	26.056
589.91	25.903
590.25	25.595
590.59	25.365
590.92	25.209
591.26	24.931
591.60	24.673
591.94	24.506
592.27	24.197
592.61	23.917
592.95	23.615
593.29	23.378
593.62	23.051
593.96	22.689
594.30	22.433
594.64	22.128
594.97	21.767
595.31	21.380
595.65	21.038
595.98	20.691
596.32	20.190
596.66	19.823
597.00	19.323
597.33	18.883
597.67	18.428
598.01	17.896
598.34	17.454
598.68	16.953
599.02	16.559
599.35	16.078
599.69	15.695
600.03	15.243
600.36	14.889
600.70	14.529
601.03	14.170
601.37	13.842
601.71	13.550
602.04	13.214
602.38	12.989
602.72	12.683
603.05	12.428
603.39	12.133
603.72	11.831
604.06	11.578
604.40	11.341
604.73	11.030
605.07	10.729
605.40	10.449
605.74	10.154
606.08	9.878
606.41	9.629
606.75	9.354
607.08	9.006
607.42	8.745
607.75	8.434
608.09	8.171
608.42	7.904
608.76	7.613
609.10	7.351
609.43	7.048
609.77	6.775
610.10	6.515
610.44	6.279
610.77	6.009
611.11	5.752
611.44	5.525
611.78	5.249
612.11	4.983
612.45	4.800
612.78	4.573
613.12	4.337
613.45	4.139
613.79	3.936
614.12	3.738
614.46	3.564
614.79	3.363
615.13	3.218
615.46	3.066
615.79	2.885
616.13	2.793
616.46	2.629
616.80	2.518
617.13	2.414
617.47	2.318
617.80	2.206
618.13	2.144
618.47	2.040
618.80	1.958
619.14	1.882
619.47	1.818
619.81	1.766
620.14	1.669
620.47	1.617
620.81	1.564
621.14	1.532
621.47	1.495
621.81	1.418
622.14	1.383
622.48	1.308
622.81	1.299
623.14	1.253
623.48	1.227
623.81	1.179
624.14	1.152
624.48	1.126
624.81	1.090
625.14	1.094
625.48	1.087
625.81	1.036
626.14	1.069
626.48	1.052
626.81	1.052
627.14	1.033
627.48	1.055
627.81	1.047
628.14	1.076
628.47	1.092
628.81	1.096
629.14	1.158
629.47	1.154
629.81	1.212
630.14	1.240
630.47	1.291
