SpectraSuite Data File
++++++++++++++++++++++++++++++++++++
Date: Mon Apr 27 20:49:55 BST 2015
User: mpfc3
Dark Spectrum Present: Yes
Reference Spectrum Present: Yes
Number of Sampled Component Spectra: 1
Spectrometers: USB2E3636
Integration Time (usec): 30000 (USB2E3636)
Spectra Averaged: 100 (USB2E3636)
Boxcar Smoothing: 0 (USB2E3636)
Correct for Electrical Dark: No (USB2E3636)
Strobe/Lamp Enabled: No (USB2E3636)
Correct for Detector Non-linearity: No (USB2E3636)
Correct for Stray Light: No (USB2E3636)
Number of Pixels in Processed Spectrum: 2048
>>>>>Begin Processed Spectral Data<<<<<
180.28	0.000
180.65	401.550
181.02	346.584
181.39	328.652
181.77	2004.348
182.14	620.000
182.51	426.364
182.88	310.119
183.25	330.968
183.63	611.429
184.00	404.717
184.37	3572.727
184.74	472.449
185.11	315.429
185.49	348.000
185.86	300.565
186.23	347.619
186.60	505.952
186.97	864.615
187.35	423.932
187.72	504.040
188.09	388.618
188.46	419.380
188.83	627.632
189.20	-122.740
189.58	-21.991
189.95	-16.407
190.32	-17.539
190.69	-20.245
191.06	-20.215
191.43	-18.236
191.81	-17.514
192.18	-18.405
192.55	-19.591
192.92	-19.777
193.29	-17.988
193.66	-19.265
194.03	-18.112
194.41	-17.570
194.78	-18.907
195.15	-20.931
195.52	-16.972
195.89	-17.150
196.26	-21.723
196.63	-20.888
197.01	-22.204
197.38	-16.950
197.75	-19.649
198.12	-16.441
198.49	-22.622
198.86	-18.951
199.23	-17.590
199.60	-14.984
199.98	-18.386
200.35	-17.557
200.72	-18.664
201.09	-20.066
201.46	-18.408
201.83	-18.874
202.20	-16.229
202.57	-18.364
202.94	-22.597
203.31	-19.616
203.69	-19.409
204.06	-18.675
204.43	-19.932
204.80	-20.022
205.17	-15.772
205.54	-20.166
205.91	-22.829
206.28	-22.748
206.65	-16.375
207.02	-18.537
207.39	-14.654
207.76	-20.308
208.14	-19.955
208.51	-20.381
208.88	-22.140
209.25	-16.749
209.62	-23.414
209.99	-20.386
210.36	-23.889
210.73	-19.683
211.10	-18.338
211.47	-17.263
211.84	-20.305
212.21	-19.237
212.58	-21.311
212.95	-25.044
213.32	-20.637
213.69	-25.994
214.06	-16.887
214.43	-22.313
214.80	-21.937
215.17	-20.525
215.55	-24.912
215.92	-19.859
216.29	-26.161
216.66	-20.809
217.03	-20.416
217.40	-22.216
217.77	-21.884
218.14	-22.507
218.51	-20.024
218.88	-24.985
219.25	-24.380
219.62	-20.904
219.99	-24.282
220.36	-23.720
220.73	-27.434
221.10	-23.030
221.47	-23.980
221.84	-24.984
222.21	-24.606
222.58	-26.185
222.95	-24.225
223.32	-22.087
223.69	-21.977
224.06	-22.018
224.43	-21.596
224.80	-21.356
225.17	-23.434
225.54	-19.018
225.91	-23.693
226.27	-17.859
226.64	-19.948
227.01	-24.641
227.38	-20.568
227.75	-14.600
228.12	-19.661
228.49	-26.539
228.86	-27.102
229.23	-25.510
229.60	-25.943
229.97	-21.847
230.34	-24.532
230.71	-26.931
231.08	-27.409
231.45	-21.904
231.82	-23.510
232.19	-21.016
232.56	-21.753
232.93	-28.121
233.30	-26.350
233.66	-27.898
234.03	-24.302
234.40	-27.145
234.77	-24.210
235.14	-22.050
235.51	-23.051
235.88	-20.924
236.25	-24.806
236.62	-26.327
236.99	-28.161
237.36	-27.631
237.73	-33.119
238.09	-21.710
238.46	-24.684
238.83	-32.807
239.20	-24.345
239.57	-24.655
239.94	-24.673
240.31	-23.706
240.68	-25.350
241.05	-27.712
241.41	-21.103
241.78	-32.799
242.15	-25.035
242.52	-25.694
242.89	-22.796
243.26	-24.948
243.63	-27.145
244.00	-27.589
244.36	-21.127
244.73	-24.944
245.10	-30.982
245.47	-29.790
245.84	-23.326
246.21	-24.338
246.58	-24.873
246.94	-32.130
247.31	-26.327
247.68	-27.050
248.05	-23.429
248.42	-27.300
248.79	-29.462
249.15	-21.272
249.52	-30.458
249.89	-25.328
250.26	-28.582
250.63	-24.719
251.00	-30.015
251.36	-24.856
251.73	-28.711
252.10	-27.207
252.47	-30.281
252.84	-31.937
253.20	-32.422
253.57	-31.293
253.94	-36.019
254.31	-27.029
254.68	-27.334
255.05	-24.727
255.41	-24.756
255.78	-36.656
256.15	-27.795
256.52	-36.230
256.88	-26.661
257.25	-30.914
257.62	-29.638
257.99	-28.221
258.36	-25.360
258.72	-27.623
259.09	-26.194
259.46	-36.145
259.83	-32.767
260.19	-28.870
260.56	-31.959
260.93	-38.575
261.30	-28.146
261.67	-28.234
262.03	-29.376
262.40	-28.953
262.77	-28.686
263.14	-29.381
263.50	-35.917
263.87	-32.716
264.24	-31.955
264.61	-34.107
264.97	-28.605
265.34	-32.638
265.71	-34.483
266.07	-33.256
266.44	-29.338
266.81	-32.096
267.18	-34.729
267.54	-35.304
267.91	-33.279
268.28	-33.524
268.64	-27.156
269.01	-33.176
269.38	-36.723
269.75	-29.201
270.11	-29.919
270.48	-24.628
270.85	-36.579
271.21	-32.805
271.58	-28.664
271.95	-34.464
272.32	-28.874
272.68	-30.262
273.05	-31.938
273.42	-32.549
273.78	-31.099
274.15	-28.309
274.52	-41.525
274.88	-38.762
275.25	-19.430
275.62	-34.951
275.98	-36.606
276.35	-35.759
276.72	-31.967
277.08	-32.759
277.45	-28.379
277.82	-29.952
278.18	-27.933
278.55	-34.260
278.92	-33.306
279.28	-36.860
279.65	-31.782
280.01	-29.048
280.38	-38.851
280.75	-42.157
281.11	-36.305
281.48	-32.837
281.85	-28.125
282.21	-31.614
282.58	-36.713
282.95	-36.149
283.31	-33.494
283.68	-30.794
284.04	-27.321
284.41	-34.269
284.78	-27.886
285.14	-26.869
285.51	-35.984
285.87	-31.546
286.24	-26.667
286.61	-31.178
286.97	-39.722
287.34	-33.279
287.70	-26.738
288.07	-28.493
288.44	-30.466
288.80	-34.085
289.17	-34.320
289.53	-33.441
289.90	-32.158
290.26	-28.489
290.63	-33.277
291.00	-42.695
291.36	-31.374
291.73	-33.627
292.09	-30.794
292.46	-28.016
292.82	-32.110
293.19	-34.217
293.56	-28.095
293.92	-37.131
294.29	-28.116
294.65	-33.756
295.02	-35.086
295.38	-29.037
295.75	-32.256
296.11	-28.501
296.48	-31.709
296.84	-27.413
297.21	-32.185
297.57	-28.896
297.94	-28.771
298.30	-29.417
298.67	-27.643
299.04	-27.023
299.40	-29.416
299.77	-27.603
300.13	-32.919
300.50	-33.851
300.86	-32.216
301.23	-27.112
301.59	-19.986
301.96	-22.099
302.32	-31.312
302.69	-25.054
303.05	-31.414
303.42	-32.896
303.78	-34.358
304.14	-26.876
304.51	-26.772
304.87	-21.911
305.24	-21.948
305.60	-29.621
305.97	-23.291
306.33	-25.112
306.70	-24.015
307.06	-25.968
307.43	-28.053
307.79	-30.650
308.16	-24.871
308.52	-28.130
308.88	-27.333
309.25	-31.910
309.61	-30.490
309.98	-30.445
310.34	-23.640
310.71	-22.386
311.07	-24.181
311.44	-26.399
311.80	-28.816
312.16	-25.439
312.53	-31.268
312.89	-23.898
313.26	-24.586
313.62	-30.893
313.98	-21.314
314.35	-22.644
314.71	-24.619
315.08	-22.763
315.44	-28.382
315.80	-27.112
316.17	-22.070
316.53	-25.117
316.90	-20.447
317.26	-22.615
317.62	-20.509
317.99	-22.767
318.35	-28.913
318.72	-27.990
319.08	-20.715
319.44	-19.748
319.81	-22.946
320.17	-23.205
320.53	-20.999
320.90	-20.719
321.26	-19.198
321.62	-21.765
321.99	-20.200
322.35	-19.533
322.72	-24.000
323.08	-19.409
323.44	-24.498
323.81	-20.069
324.17	-24.461
324.53	-22.849
324.90	-18.230
325.26	-19.481
325.62	-20.478
325.99	-12.937
326.35	-20.347
326.71	-17.857
327.08	-19.851
327.44	-13.852
327.80	-16.468
328.16	-20.597
328.53	-20.280
328.89	-16.434
329.25	-20.976
329.62	-12.166
329.98	-11.473
330.34	-14.691
330.71	-20.256
331.07	-15.755
331.43	-16.548
331.79	-14.984
332.16	-15.736
332.52	-16.424
332.88	-12.996
333.24	-14.601
333.61	-15.968
333.97	-14.193
334.33	-13.121
334.70	-16.808
335.06	-13.198
335.42	-15.344
335.78	-15.736
336.15	-12.968
336.51	-14.444
336.87	-13.586
337.23	-17.576
337.60	-14.476
337.96	-11.863
338.32	-13.393
338.68	-15.241
339.04	-14.799
339.41	-14.803
339.77	-11.099
340.13	-7.913
340.49	-10.807
340.86	-14.027
341.22	-10.628
341.58	-9.364
341.94	-11.609
342.30	-9.162
342.67	-9.353
343.03	-8.784
343.39	-8.861
343.75	-8.614
344.11	-10.433
344.48	-7.683
344.84	-9.822
345.20	-10.169
345.56	-9.243
345.92	-8.580
346.28	-7.862
346.65	-7.395
347.01	-8.141
347.37	-10.302
347.73	-9.272
348.09	-7.947
348.45	-7.084
348.82	-6.305
349.18	-8.973
349.54	-8.366
349.90	-7.085
350.26	-7.335
350.62	-8.558
350.98	-8.369
351.35	-6.151
351.71	-7.773
352.07	-8.704
352.43	-6.950
352.79	-7.173
353.15	-7.323
353.51	-5.592
353.87	-6.603
354.24	-6.613
354.60	-6.023
354.96	-6.459
355.32	-6.328
355.68	-5.571
356.04	-5.984
356.40	-6.240
356.76	-5.209
357.12	-5.861
357.48	-4.780
357.85	-5.810
358.21	-4.579
358.57	-4.885
358.93	-3.899
359.29	-4.324
359.65	-5.281
360.01	-5.554
360.37	-4.833
360.73	-5.824
361.09	-4.264
361.45	-4.387
361.81	-4.755
362.17	-4.344
362.53	-3.497
362.89	-5.324
363.25	-4.107
363.62	-4.324
363.98	-3.839
364.34	-4.971
364.70	-3.202
365.06	-3.221
365.42	-3.270
365.78	-2.911
366.14	-3.644
366.50	-2.958
366.86	-2.653
367.22	-3.976
367.58	-3.090
367.94	-3.216
368.30	-2.620
368.66	-3.696
369.02	-2.133
369.38	-1.968
369.74	-3.371
370.10	-3.173
370.46	-3.291
370.82	-3.049
371.18	-3.010
371.54	-2.692
371.90	-2.581
372.26	-2.854
372.62	-2.686
372.98	-2.303
373.33	-1.751
373.69	-1.909
374.05	-2.063
374.41	-2.504
374.77	-1.610
375.13	-2.864
375.49	-1.926
375.85	-1.898
376.21	-1.983
376.57	-1.859
376.93	-1.372
377.29	-1.258
377.65	-2.176
378.01	-1.949
378.37	-1.880
378.73	-1.603
379.08	-1.878
379.44	-1.884
379.80	-1.391
380.16	-1.354
380.52	-1.044
380.88	-0.874
381.24	-1.089
381.60	-1.668
381.96	-0.995
382.32	-0.538
382.67	-0.763
383.03	-1.240
383.39	-0.579
383.75	-0.948
384.11	-0.557
384.47	-0.214
384.83	-0.510
385.19	-0.382
385.54	-0.022
385.90	-0.465
386.26	-0.191
386.62	-0.438
386.98	-0.330
387.34	0.693
387.70	0.119
388.05	0.903
388.41	0.463
388.77	0.856
389.13	0.736
389.49	0.825
389.85	1.131
390.20	0.844
390.56	1.351
390.92	0.875
391.28	1.277
391.64	1.293
391.99	0.798
392.35	1.574
392.71	1.723
393.07	1.992
393.43	1.706
393.78	1.817
394.14	1.637
394.50	2.058
394.86	2.571
395.22	2.057
395.57	2.480
395.93	2.595
396.29	2.537
396.65	2.912
397.00	2.733
397.36	2.934
397.72	2.861
398.08	3.033
398.43	3.372
398.79	3.515
399.15	3.603
399.51	3.657
399.86	3.654
400.22	3.946
400.58	3.949
400.94	3.906
401.29	4.103
401.65	4.148
402.01	4.345
402.37	4.534
402.72	4.551
403.08	4.588
403.44	4.302
403.79	4.784
404.15	4.760
404.51	4.999
404.86	5.038
405.22	5.467
405.58	5.408
405.94	5.632
406.29	5.742
406.65	5.574
407.01	5.945
407.36	5.933
407.72	5.867
408.08	6.078
408.43	6.298
408.79	6.206
409.15	6.354
409.50	6.242
409.86	6.999
410.22	6.639
410.57	6.789
410.93	6.917
411.29	7.192
411.64	7.083
412.00	7.204
412.35	7.314
412.71	7.557
413.07	7.578
413.42	7.791
413.78	7.687
414.14	7.597
414.49	7.681
414.85	7.873
415.20	8.225
415.56	8.356
415.92	8.380
416.27	8.616
416.63	8.741
416.98	8.881
417.34	8.731
417.70	8.918
418.05	9.200
418.41	8.719
418.76	9.306
419.12	9.550
419.47	9.379
419.83	9.422
420.19	9.509
420.54	9.693
420.90	9.868
421.25	9.757
421.61	10.285
421.96	10.071
422.32	10.236
422.67	10.404
423.03	10.490
423.39	10.338
423.74	10.790
424.10	10.572
424.45	10.840
424.81	11.097
425.16	11.167
425.52	10.923
425.87	11.339
426.23	11.458
426.58	11.504
426.94	11.470
427.29	11.477
427.65	11.714
428.00	11.713
428.36	11.934
428.71	12.011
429.07	12.110
429.42	12.154
429.78	12.326
430.13	12.499
430.49	12.521
430.84	12.631
431.19	12.614
431.55	12.625
431.90	12.831
432.26	12.890
432.61	13.055
432.97	13.058
433.32	13.362
433.68	13.457
434.03	13.364
434.39	13.503
434.74	13.431
435.09	13.731
435.45	13.800
435.80	13.783
436.16	14.081
436.51	14.111
436.86	14.137
437.22	14.158
437.57	14.390
437.93	14.347
438.28	14.433
438.63	14.653
438.99	14.568
439.34	14.770
439.70	15.046
440.05	14.851
440.40	15.065
440.76	15.114
441.11	15.069
441.47	15.270
441.82	15.315
442.17	15.332
442.53	15.439
442.88	15.641
443.23	15.622
443.59	15.819
443.94	15.875
444.29	15.887
444.65	15.914
445.00	15.997
445.35	16.030
445.71	15.925
446.06	16.242
446.41	16.267
446.77	16.496
447.12	16.553
447.47	16.655
447.83	16.549
448.18	16.811
448.53	16.902
448.89	16.908
449.24	16.979
449.59	16.928
449.94	17.158
450.30	17.147
450.65	17.347
451.00	17.330
451.36	17.558
451.71	17.663
452.06	17.772
452.41	17.810
452.77	17.868
453.12	17.855
453.47	17.965
453.82	18.035
454.18	18.213
454.53	18.256
454.88	18.249
455.23	18.365
455.59	18.477
455.94	18.517
456.29	18.683
456.64	18.670
457.00	18.891
457.35	18.908
457.70	19.110
458.05	19.138
458.40	19.089
458.76	19.235
459.11	19.405
459.46	19.384
459.81	19.570
460.16	19.600
460.52	19.587
460.87	19.817
461.22	19.874
461.57	19.824
461.92	19.969
462.28	20.039
462.63	20.145
462.98	20.391
463.33	20.330
463.68	20.361
464.03	20.470
464.38	20.521
464.74	20.626
465.09	20.728
465.44	20.716
465.79	20.837
466.14	20.888
466.49	21.037
466.84	21.002
467.20	21.092
467.55	21.220
467.90	21.264
468.25	21.493
468.60	21.425
468.95	21.424
469.30	21.530
469.65	21.533
470.00	21.621
470.36	21.723
470.71	21.746
471.06	21.735
471.41	21.841
471.76	21.832
472.11	21.944
472.46	21.961
472.81	22.020
473.16	22.131
473.51	22.148
473.86	22.150
474.21	22.192
474.56	22.269
474.91	22.267
475.26	22.236
475.62	22.256
475.97	22.329
476.32	22.248
476.67	22.287
477.02	22.386
477.37	22.266
477.72	22.436
478.07	22.337
478.42	22.396
478.77	22.444
479.12	22.403
479.47	22.519
479.82	22.395
480.17	22.350
480.52	22.407
480.87	22.433
481.22	22.522
481.57	22.462
481.92	22.471
482.27	22.555
482.62	22.490
482.97	22.509
483.32	22.571
483.67	22.509
484.02	22.514
484.36	22.610
484.71	22.602
485.06	22.642
485.41	22.681
485.76	22.687
486.11	22.631
486.46	22.745
486.81	22.743
487.16	22.796
487.51	22.847
487.86	22.913
488.21	22.947
488.56	22.977
488.91	23.029
489.25	23.110
489.60	23.093
489.95	23.165
490.30	23.250
490.65	23.332
491.00	23.379
491.35	23.444
491.70	23.506
492.05	23.664
492.39	23.672
492.74	23.673
493.09	23.719
493.44	23.813
493.79	23.915
494.14	23.961
494.49	24.050
494.83	24.101
495.18	24.187
495.53	24.210
495.88	24.372
496.23	24.373
496.58	24.465
496.92	24.525
497.27	24.598
497.62	24.661
497.97	24.727
498.32	24.810
498.67	24.879
499.01	24.950
499.36	24.981
499.71	25.012
500.06	25.062
500.41	25.138
500.75	25.282
501.10	25.292
501.45	25.315
501.80	25.366
502.14	25.401
502.49	25.509
502.84	25.548
503.19	25.565
503.53	25.630
503.88	25.659
504.23	25.716
504.58	25.776
504.92	25.835
505.27	25.839
505.62	25.788
505.97	25.812
506.31	25.847
506.66	25.917
507.01	25.943
507.36	25.917
507.70	26.006
508.05	25.954
508.40	25.960
508.74	25.992
509.09	25.927
509.44	25.915
509.79	25.887
510.13	25.880
510.48	25.841
510.83	25.825
511.17	25.816
511.52	25.797
511.87	25.772
512.21	25.794
512.56	25.743
512.91	25.789
513.25	25.795
513.60	25.853
513.95	25.869
514.29	25.863
514.64	25.983
514.98	26.018
515.33	25.972
515.68	26.064
516.02	26.063
516.37	26.081
516.72	26.141
517.06	26.145
517.41	26.184
517.75	26.176
518.10	26.219
518.45	26.278
518.79	26.281
519.14	26.293
519.48	26.289
519.83	26.272
520.18	26.359
520.52	26.331
520.87	26.407
521.21	26.364
521.56	26.389
521.90	26.347
522.25	26.333
522.60	26.352
522.94	26.381
523.29	26.355
523.63	26.429
523.98	26.336
524.32	26.367
524.67	26.311
525.01	26.291
525.36	26.298
525.70	26.191
526.05	26.254
526.39	26.207
526.74	26.164
527.08	26.064
527.43	26.010
527.77	26.065
528.12	25.963
528.46	25.859
528.81	25.803
529.15	25.746
529.50	25.641
529.84	25.597
530.19	25.541
530.53	25.420
530.88	25.297
531.22	25.244
531.57	25.122
531.91	25.031
532.26	24.887
532.60	24.842
532.94	24.643
533.29	24.519
533.63	24.356
533.98	24.225
534.32	24.080
534.67	23.928
535.01	23.753
535.35	23.564
535.70	23.467
536.04	23.225
536.39	23.036
536.73	22.881
537.07	22.658
537.42	22.472
537.76	22.390
538.11	22.151
538.45	21.996
538.79	21.837
539.14	21.597
539.48	21.479
539.82	21.298
540.17	21.106
540.51	20.939
540.85	20.820
541.20	20.649
541.54	20.562
541.89	20.347
542.23	20.254
542.57	20.186
542.92	20.061
543.26	19.987
543.60	19.890
543.94	19.794
544.29	19.797
544.63	19.695
544.97	19.705
545.32	19.703
545.66	19.631
546.00	19.646
546.35	19.614
546.69	19.593
547.03	19.626
547.37	19.642
547.72	19.665
548.06	19.655
548.40	19.699
548.75	19.814
549.09	19.824
549.43	19.845
549.77	19.904
550.12	19.957
550.46	20.028
550.80	20.135
551.14	20.204
551.49	20.292
551.83	20.413
552.17	20.551
552.51	20.652
552.85	20.745
553.20	20.932
553.54	21.052
553.88	21.213
554.22	21.348
554.56	21.541
554.91	21.681
555.25	21.830
555.59	22.000
555.93	22.268
556.27	22.432
556.62	22.643
556.96	22.892
557.30	23.051
557.64	23.181
557.98	23.454
558.32	23.647
558.67	23.841
559.01	24.064
559.35	24.266
559.69	24.507
560.03	24.628
560.37	24.895
560.71	25.065
561.05	25.305
561.40	25.468
561.74	25.679
562.08	25.806
562.42	25.991
562.76	26.219
563.10	26.336
563.44	26.477
563.78	26.615
564.12	26.784
564.46	26.968
564.81	27.073
565.15	27.106
565.49	27.244
565.83	27.388
566.17	27.464
566.51	27.543
566.85	27.698
567.19	27.735
567.53	27.806
567.87	27.880
568.21	27.857
568.55	27.923
568.89	27.975
569.23	27.973
569.57	28.024
569.91	28.016
570.25	28.004
570.59	28.038
570.93	28.016
571.27	27.949
571.61	27.975
571.95	27.966
572.29	27.880
572.63	27.796
572.97	27.826
573.31	27.723
573.65	27.731
573.99	27.586
574.33	27.575
574.67	27.431
575.01	27.288
575.35	27.311
575.69	27.217
576.03	27.146
576.37	27.005
576.71	26.910
577.05	26.786
577.39	26.694
577.73	26.536
578.06	26.457
578.40	26.308
578.74	26.148
579.08	26.009
579.42	25.856
579.76	25.744
580.10	25.503
580.44	25.413
580.78	25.223
581.12	25.072
581.45	24.862
581.79	24.711
582.13	24.612
582.47	24.450
582.81	24.250
583.15	24.074
583.49	23.942
583.83	23.891
584.16	23.635
584.50	23.558
584.84	23.454
585.18	23.285
585.52	23.188
585.86	23.013
586.19	22.933
586.53	22.803
586.87	22.680
587.21	22.553
587.55	22.406
587.88	22.275
588.22	22.132
588.56	21.938
588.90	21.804
589.24	21.681
589.57	21.478
589.91	21.255
590.25	21.110
590.59	20.922
590.92	20.704
591.26	20.599
591.60	20.338
591.94	20.168
592.27	19.991
592.61	19.668
592.95	19.517
593.29	19.242
593.62	19.038
593.96	18.795
594.30	18.527
594.64	18.218
594.97	17.915
595.31	17.651
595.65	17.335
595.98	17.051
596.32	16.675
596.66	16.362
597.00	15.953
597.33	15.569
597.67	15.136
598.01	14.788
598.34	14.409
598.68	14.044
599.02	13.635
599.35	13.251
599.69	12.937
600.03	12.611
600.36	12.275
600.70	11.971
601.03	11.703
601.37	11.437
601.71	11.219
602.04	10.936
602.38	10.693
602.72	10.493
603.05	10.276
603.39	10.026
603.72	9.826
604.06	9.598
604.40	9.408
604.73	9.104
605.07	8.928
605.40	8.714
605.74	8.470
606.08	8.221
606.41	8.004
606.75	7.756
607.08	7.537
607.42	7.301
607.75	7.067
608.09	6.830
608.42	6.589
608.76	6.331
609.10	6.124
609.43	5.883
609.77	5.658
610.10	5.432
610.44	5.229
610.77	4.996
611.11	4.823
611.44	4.611
611.78	4.402
612.11	4.227
612.45	4.045
612.78	3.859
613.12	3.673
613.45	3.461
613.79	3.330
614.12	3.179
614.46	3.019
614.79	2.879
615.13	2.737
615.46	2.614
615.79	2.477
616.13	2.368
616.46	2.272
616.80	2.170
617.13	2.063
617.47	2.013
617.80	1.886
618.13	1.845
618.47	1.739
618.80	1.707
619.14	1.637
619.47	1.571
619.81	1.526
620.14	1.497
620.47	1.438
620.81	1.348
621.14	1.336
621.47	1.283
621.81	1.270
622.14	1.227
622.48	1.178
622.81	1.139
623.14	1.122
623.48	1.091
623.81	1.060
624.14	1.045
624.48	1.008
624.81	0.990
625.14	0.973
625.48	0.975
625.81	0.970
626.14	0.945
626.48	0.930
626.81	0.946
627.14	0.955
627.48	0.952
627.81	0.959
628.14	0.981
628.47	1.006
628.81	1.010
629.14	1.032
629.47	1.046
629.81	1.086
630.14	1.109
630.47	1.143
630.80	1.191
631.14	1.260
631.47	1.292
631.80	1.377
632.13	1.433
632.47	1.501
