SpectraSuite Data File
++++++++++++++++++++++++++++++++++++
Date: Mon Apr 27 20:46:50 BST 2015
User: mpfc3
Dark Spectrum Present: Yes
Reference Spectrum Present: Yes
Number of Sampled Component Spectra: 1
Spectrometers: USB2E3636
Integration Time (usec): 30000 (USB2E3636)
Spectra Averaged: 100 (USB2E3636)
Boxcar Smoothing: 0 (USB2E3636)
Correct for Electrical Dark: No (USB2E3636)
Strobe/Lamp Enabled: No (USB2E3636)
Correct for Detector Non-linearity: No (USB2E3636)
Correct for Stray Light: No (USB2E3636)
Number of Pixels in Processed Spectrum: 2048
>>>>>Begin Processed Spectral Data<<<<<
180.28	0.000
180.65	345.736
181.02	281.366
181.39	275.843
181.77	1760.870
182.14	507.500
182.51	391.818
182.88	301.786
183.25	298.710
183.63	557.143
184.00	386.792
184.37	2900.000
184.74	415.306
185.11	281.714
185.49	343.333
185.86	277.401
186.23	303.401
186.60	486.905
186.97	695.385
187.35	347.009
187.72	436.364
188.09	391.057
188.46	342.636
188.83	459.211
189.20	-110.411
189.58	-18.279
189.95	-15.277
190.32	-14.031
190.69	-18.966
191.06	-17.581
191.43	-16.460
191.81	-12.585
192.18	-15.565
192.55	-15.393
192.92	-16.215
193.29	-14.103
193.66	-14.984
194.03	-14.160
194.41	-12.046
194.78	-14.676
195.15	-16.863
195.52	-13.148
195.89	-14.354
196.26	-15.035
196.63	-15.515
197.01	-18.586
197.38	-13.071
197.75	-17.844
198.12	-15.630
198.49	-19.524
198.86	-15.364
199.23	-19.580
199.60	-12.859
199.98	-17.317
200.35	-15.431
200.72	-16.256
201.09	-15.735
201.46	-15.755
201.83	-15.894
202.20	-14.247
202.57	-16.027
202.94	-16.740
203.31	-13.151
203.69	-15.376
204.06	-15.991
204.43	-19.651
204.80	-15.295
205.17	-15.664
205.54	-14.254
205.91	-12.973
206.28	-20.125
206.65	-12.651
207.02	-17.800
207.39	-10.648
207.76	-14.915
208.14	-18.192
208.51	-17.148
208.88	-19.237
209.25	-14.122
209.62	-18.554
209.99	-15.559
210.36	-18.869
210.73	-16.968
211.10	-17.452
211.47	-11.899
211.84	-18.778
212.21	-16.927
212.58	-17.857
212.95	-16.249
213.32	-19.811
213.69	-15.193
214.06	-13.383
214.43	-17.991
214.80	-21.820
215.17	-16.851
215.55	-20.447
215.92	-15.687
216.29	-14.059
216.66	-15.768
217.03	-17.756
217.40	-20.786
217.77	-20.547
218.14	-16.597
218.51	-18.750
218.88	-19.343
219.25	-24.814
219.62	-19.398
219.99	-16.746
220.36	-20.162
220.73	-16.877
221.10	-21.697
221.47	-21.155
221.84	-17.926
222.21	-18.788
222.58	-21.322
222.95	-21.316
223.32	-16.808
223.69	-19.214
224.06	-21.494
224.43	-21.533
224.80	-17.237
225.17	-18.233
225.54	-16.319
225.91	-19.045
226.27	-20.646
226.64	-16.656
227.01	-21.023
227.38	-17.729
227.75	-15.922
228.12	-18.359
228.49	-20.318
228.86	-21.856
229.23	-23.673
229.60	-18.862
229.97	-15.150
230.34	-19.853
230.71	-23.033
231.08	-23.103
231.45	-17.601
231.82	-22.462
232.19	-19.368
232.56	-19.117
232.93	-24.161
233.30	-19.763
233.66	-19.003
234.03	-22.805
234.40	-23.699
234.77	-20.242
235.14	-19.083
235.51	-20.881
235.88	-16.964
236.25	-20.085
236.62	-23.324
236.99	-21.873
237.36	-23.908
237.73	-26.695
238.09	-16.893
238.46	-22.090
238.83	-24.192
239.20	-19.179
239.57	-22.099
239.94	-19.228
240.31	-18.671
240.68	-22.829
241.05	-25.409
241.41	-19.793
241.78	-27.460
242.15	-21.001
242.52	-22.778
242.89	-21.074
243.26	-20.893
243.63	-21.589
244.00	-23.896
244.36	-17.676
244.73	-23.678
245.10	-25.891
245.47	-20.318
245.84	-19.078
246.21	-22.941
246.58	-22.408
246.94	-24.318
247.31	-20.575
247.68	-22.374
248.05	-24.242
248.42	-22.255
248.79	-23.656
249.15	-21.418
249.52	-23.106
249.89	-22.635
250.26	-23.319
250.63	-21.208
251.00	-23.083
251.36	-20.402
251.73	-27.430
252.10	-20.172
252.47	-24.077
252.84	-31.067
253.20	-27.734
253.57	-26.626
253.94	-27.881
254.31	-25.532
254.68	-25.392
255.05	-23.947
255.41	-21.080
255.78	-29.670
256.15	-22.810
256.52	-30.082
256.88	-28.772
257.25	-26.998
257.62	-28.616
257.99	-21.976
258.36	-27.933
258.72	-22.717
259.09	-25.597
259.46	-27.033
259.83	-28.722
260.19	-22.523
260.56	-27.756
260.93	-28.911
261.30	-22.189
261.67	-25.795
262.03	-23.364
262.40	-23.377
262.77	-20.730
263.14	-23.565
263.50	-33.000
263.87	-22.531
264.24	-26.521
264.61	-28.925
264.97	-26.176
265.34	-23.978
265.71	-30.131
266.07	-28.438
266.44	-22.397
266.81	-24.422
267.18	-28.982
267.54	-31.903
267.91	-28.490
268.28	-29.608
268.64	-27.800
269.01	-23.168
269.38	-27.280
269.75	-25.285
270.11	-23.306
270.48	-18.676
270.85	-26.678
271.21	-24.624
271.58	-27.045
271.95	-24.287
272.32	-25.693
272.68	-22.319
273.05	-24.384
273.42	-31.451
273.78	-29.402
274.15	-23.871
274.52	-32.203
274.88	-32.570
275.25	-17.677
275.62	-24.178
275.98	-31.281
276.35	-25.712
276.72	-27.197
277.08	-26.034
277.45	-19.289
277.82	-22.923
278.18	-23.943
278.55	-25.920
278.92	-25.707
279.28	-28.182
279.65	-27.681
280.01	-20.873
280.38	-30.017
280.75	-36.007
281.11	-30.227
281.48	-26.385
281.85	-24.531
282.21	-23.295
282.58	-24.775
282.95	-29.645
283.31	-26.683
283.68	-23.889
284.04	-20.528
284.41	-29.975
284.78	-26.748
285.14	-20.249
285.51	-21.890
285.87	-23.854
286.24	-21.648
286.61	-21.247
286.97	-30.009
287.34	-21.002
287.70	-20.015
288.07	-18.501
288.44	-22.257
288.80	-23.559
289.17	-25.275
289.53	-26.640
289.90	-26.825
290.26	-22.989
290.63	-25.985
291.00	-34.121
291.36	-24.580
291.73	-23.219
292.09	-23.413
292.46	-23.016
292.82	-29.608
293.19	-25.932
293.56	-25.952
293.92	-26.803
294.29	-24.164
294.65	-19.731
295.02	-24.568
295.38	-24.337
295.75	-25.710
296.11	-26.044
296.48	-19.335
296.84	-23.925
297.21	-22.788
297.57	-25.568
297.94	-21.073
298.30	-25.203
298.67	-22.631
299.04	-24.745
299.40	-22.490
299.77	-22.713
300.13	-29.037
300.50	-25.266
300.86	-22.772
301.23	-28.648
301.59	-20.275
301.96	-16.851
302.32	-22.180
302.69	-17.139
303.05	-23.560
303.42	-26.409
303.78	-22.598
304.14	-20.291
304.51	-17.345
304.87	-16.164
305.24	-17.925
305.60	-24.796
305.97	-18.708
306.33	-21.461
306.70	-20.606
307.06	-18.795
307.43	-22.206
307.79	-29.644
308.16	-19.720
308.52	-24.374
308.88	-22.483
309.25	-23.371
309.61	-21.513
309.98	-25.094
310.34	-18.201
310.71	-20.140
311.07	-19.303
311.44	-19.440
311.80	-24.394
312.16	-19.225
312.53	-23.775
312.89	-15.634
313.26	-18.646
313.62	-20.571
313.98	-16.689
314.35	-20.183
314.71	-16.574
315.08	-14.934
315.44	-21.757
315.80	-19.823
316.17	-19.397
316.53	-18.321
316.90	-17.949
317.26	-19.546
317.62	-17.831
317.99	-15.912
318.35	-20.779
318.72	-17.366
319.08	-15.105
319.44	-15.584
319.81	-15.992
320.17	-13.800
320.53	-14.674
320.90	-15.509
321.26	-13.333
321.62	-14.027
321.99	-21.633
322.35	-13.421
322.72	-21.600
323.08	-20.452
323.44	-19.696
323.81	-16.194
324.17	-16.249
324.53	-16.395
324.90	-14.596
325.26	-16.138
325.62	-14.352
325.99	-9.051
326.35	-13.348
326.71	-12.418
327.08	-14.013
327.44	-11.678
327.80	-10.668
328.16	-15.985
328.53	-14.958
328.89	-8.888
329.25	-15.075
329.62	-11.554
329.98	-7.320
330.34	-11.715
330.71	-14.848
331.07	-13.899
331.43	-14.557
331.79	-13.568
332.16	-11.924
332.52	-11.965
332.88	-12.291
333.24	-12.979
333.61	-11.381
333.97	-10.871
334.33	-7.661
334.70	-12.733
335.06	-11.502
335.42	-11.681
335.78	-13.386
336.15	-9.499
336.51	-9.972
336.87	-7.148
337.23	-12.240
337.60	-10.318
337.96	-10.532
338.32	-10.174
338.68	-9.862
339.04	-12.454
339.41	-9.772
339.77	-9.965
340.13	-7.640
340.49	-8.004
340.86	-9.491
341.22	-7.708
341.58	-8.210
341.94	-8.557
342.30	-7.369
342.67	-7.335
343.03	-6.112
343.39	-7.317
343.75	-6.101
344.11	-6.602
344.48	-5.484
344.84	-7.024
345.20	-7.712
345.56	-6.303
345.92	-7.862
346.28	-5.434
346.65	-6.015
347.01	-6.326
347.37	-7.393
347.73	-7.841
348.09	-5.367
348.45	-6.113
348.82	-3.912
349.18	-8.922
349.54	-6.466
349.90	-4.894
350.26	-6.181
350.62	-6.497
350.98	-6.919
351.35	-4.712
351.71	-4.977
352.07	-5.802
352.43	-6.022
352.79	-5.319
353.15	-5.752
353.51	-4.253
353.87	-6.049
354.24	-4.997
354.60	-4.528
354.96	-4.640
355.32	-3.777
355.68	-4.586
356.04	-5.925
356.40	-4.388
356.76	-5.458
357.12	-4.420
357.48	-3.693
357.85	-3.575
358.21	-4.470
358.57	-3.901
358.93	-2.792
359.29	-3.076
359.65	-4.073
360.01	-2.861
360.37	-4.343
360.73	-3.613
361.09	-3.022
361.45	-3.857
361.81	-3.782
362.17	-3.127
362.53	-2.844
362.89	-4.272
363.25	-3.084
363.62	-2.057
363.98	-2.738
364.34	-4.351
364.70	-2.014
365.06	-2.992
365.42	-2.599
365.78	-2.385
366.14	-2.719
366.50	-3.081
366.86	-1.986
367.22	-2.391
367.58	-1.920
367.94	-2.070
368.30	-1.879
368.66	-3.082
369.02	-2.233
369.38	-2.753
369.74	-2.309
370.10	-3.087
370.46	-1.837
370.82	-1.796
371.18	-1.995
371.54	-2.086
371.90	-2.149
372.26	-2.064
372.62	-1.581
372.98	-1.481
373.33	-1.392
373.69	-1.499
374.05	-1.122
374.41	-1.316
374.77	-0.759
375.13	-1.396
375.49	-1.029
375.85	-1.451
376.21	-1.168
376.57	-0.959
376.93	-1.037
377.29	-0.715
377.65	-1.801
378.01	-0.787
378.37	-1.541
378.73	-1.337
379.08	-1.125
379.44	-0.527
379.80	-0.629
380.16	-1.159
380.52	-0.748
380.88	0.026
381.24	-0.618
381.60	-0.817
381.96	-0.650
382.32	-0.693
382.67	-0.016
383.03	-0.657
383.39	-0.024
383.75	-0.205
384.11	-0.055
384.47	0.314
384.83	0.084
385.19	0.397
385.54	-0.112
385.90	-0.037
386.26	0.096
386.62	0.095
386.98	-0.043
387.34	1.245
387.70	0.449
388.05	1.213
388.41	0.725
388.77	1.346
389.13	0.931
389.49	1.260
389.85	1.131
390.20	1.564
390.56	1.578
390.92	1.335
391.28	1.226
391.64	1.550
391.99	1.156
392.35	2.125
392.71	2.251
393.07	2.469
393.43	2.427
393.78	2.281
394.14	2.026
394.50	2.337
394.86	3.048
395.22	2.367
395.57	2.651
395.93	2.657
396.29	3.057
396.65	3.458
397.00	2.711
397.36	3.149
397.72	3.246
398.08	3.369
398.43	3.749
398.79	3.805
399.15	3.757
399.51	3.983
399.86	3.689
400.22	4.156
400.58	4.445
400.94	4.533
401.29	4.541
401.65	4.618
402.01	4.459
402.37	4.466
402.72	4.588
403.08	5.040
403.44	4.760
403.79	5.194
404.15	5.036
404.51	5.165
404.86	5.522
405.22	5.726
405.58	5.569
405.94	5.718
406.29	5.929
406.65	5.956
407.01	6.351
407.36	6.285
407.72	6.065
408.08	6.541
408.43	6.443
408.79	6.536
409.15	6.897
409.50	6.517
409.86	6.927
410.22	6.957
410.57	7.228
410.93	7.051
411.29	7.240
411.64	7.525
412.00	7.378
412.35	7.606
412.71	7.708
413.07	7.633
413.42	7.907
413.78	7.829
414.14	8.203
414.49	8.229
414.85	8.175
415.20	8.441
415.56	8.587
415.92	8.668
416.27	8.768
416.63	8.862
416.98	8.927
417.34	9.192
417.70	9.167
418.05	9.354
418.41	9.182
418.76	9.439
419.12	9.579
419.47	9.663
419.83	9.569
420.19	9.890
420.54	9.812
420.90	9.907
421.25	9.881
421.61	10.282
421.96	10.131
422.32	10.282
422.67	10.487
423.03	10.648
423.39	10.543
423.74	11.093
424.10	10.937
424.45	11.010
424.81	11.144
425.16	11.544
425.52	11.361
425.87	11.368
426.23	11.558
426.58	11.848
426.94	11.678
427.29	11.829
427.65	12.154
428.00	11.929
428.36	12.231
428.71	12.114
429.07	12.221
429.42	12.324
429.78	12.388
430.13	12.460
430.49	12.702
430.84	12.754
431.19	12.899
431.55	13.084
431.90	13.083
432.26	13.175
432.61	13.198
432.97	13.452
433.32	13.724
433.68	13.723
434.03	13.542
434.39	13.737
434.74	13.624
435.09	13.834
435.45	13.982
435.80	14.038
436.16	14.203
436.51	14.253
436.86	14.179
437.22	14.398
437.57	14.598
437.93	14.524
438.28	14.656
438.63	14.800
438.99	14.840
439.34	14.853
439.70	15.044
440.05	15.134
440.40	15.223
440.76	15.047
441.11	15.260
441.47	15.402
441.82	15.471
442.17	15.615
442.53	15.575
442.88	15.718
443.23	15.866
443.59	15.950
443.94	15.980
444.29	16.080
444.65	15.989
445.00	16.208
445.35	16.306
445.71	16.272
446.06	16.450
446.41	16.536
446.77	16.537
447.12	16.699
447.47	16.955
447.83	16.823
448.18	17.067
448.53	17.030
448.89	17.006
449.24	17.109
449.59	17.169
449.94	17.132
450.30	17.348
450.65	17.499
451.00	17.526
451.36	17.637
451.71	17.735
452.06	17.772
452.41	17.785
452.77	18.092
453.12	17.952
453.47	18.208
453.82	18.240
454.18	18.247
454.53	18.387
454.88	18.508
455.23	18.541
455.59	18.563
455.94	18.727
456.29	18.764
456.64	18.819
457.00	18.917
457.35	19.113
457.70	19.150
458.05	19.136
458.40	19.286
458.76	19.316
459.11	19.489
459.46	19.483
459.81	19.581
460.16	19.770
460.52	19.821
460.87	19.853
461.22	19.926
461.57	20.052
461.92	20.014
462.28	20.216
462.63	20.137
462.98	20.354
463.33	20.490
463.68	20.549
464.03	20.546
464.38	20.593
464.74	20.679
465.09	20.808
465.44	20.873
465.79	20.979
466.14	21.073
466.49	21.090
466.84	21.153
467.20	21.070
467.55	21.320
467.90	21.285
468.25	21.203
468.60	21.453
468.95	21.507
469.30	21.479
469.65	21.642
470.00	21.736
470.36	21.780
470.71	21.856
471.06	21.846
471.41	21.888
471.76	22.011
472.11	21.939
472.46	22.058
472.81	22.066
473.16	22.062
473.51	22.165
473.86	22.172
474.21	22.240
474.56	22.321
474.91	22.292
475.26	22.332
475.62	22.367
475.97	22.319
476.32	22.280
476.67	22.352
477.02	22.383
477.37	22.383
477.72	22.518
478.07	22.501
478.42	22.436
478.77	22.508
479.12	22.532
479.47	22.530
479.82	22.507
480.17	22.488
480.52	22.402
480.87	22.502
481.22	22.485
481.57	22.502
481.92	22.550
482.27	22.582
482.62	22.524
482.97	22.600
483.32	22.609
483.67	22.609
484.02	22.629
484.36	22.639
484.71	22.635
485.06	22.704
485.41	22.684
485.76	22.695
486.11	22.721
486.46	22.819
486.81	22.824
487.16	22.868
487.51	22.867
487.86	22.897
488.21	23.007
488.56	23.053
488.91	23.098
489.25	23.212
489.60	23.258
489.95	23.269
490.30	23.337
490.65	23.453
491.00	23.505
491.35	23.498
491.70	23.632
492.05	23.615
492.39	23.705
492.74	23.783
493.09	23.768
493.44	23.853
493.79	23.976
494.14	24.059
494.49	24.123
494.83	24.207
495.18	24.234
495.53	24.298
495.88	24.386
496.23	24.443
496.58	24.560
496.92	24.568
497.27	24.700
497.62	24.767
497.97	24.768
498.32	24.825
498.67	24.911
499.01	24.970
499.36	24.989
499.71	25.143
500.06	25.172
500.41	25.191
500.75	25.303
501.10	25.331
501.45	25.388
501.80	25.446
502.14	25.493
502.49	25.619
502.84	25.623
503.19	25.643
503.53	25.734
503.88	25.735
504.23	25.748
504.58	25.805
504.92	25.907
505.27	25.926
505.62	25.920
505.97	25.953
506.31	25.958
506.66	25.929
507.01	26.000
507.36	26.007
507.70	26.104
508.05	26.074
508.40	26.083
508.74	26.079
509.09	26.050
509.44	25.979
509.79	25.961
510.13	25.913
510.48	25.913
510.83	25.886
511.17	25.980
511.52	25.894
511.87	25.922
512.21	25.895
512.56	25.894
512.91	25.934
513.25	25.936
513.60	25.919
513.95	25.909
514.29	25.971
514.64	26.037
514.98	26.026
515.33	26.057
515.68	26.160
516.02	26.117
516.37	26.114
516.72	26.170
517.06	26.227
517.41	26.281
517.75	26.248
518.10	26.277
518.45	26.311
518.79	26.356
519.14	26.411
519.48	26.393
519.83	26.367
520.18	26.417
520.52	26.441
520.87	26.346
521.21	26.513
521.56	26.408
521.90	26.498
522.25	26.410
522.60	26.455
522.94	26.441
523.29	26.419
523.63	26.495
523.98	26.374
524.32	26.429
524.67	26.453
525.01	26.396
525.36	26.404
525.70	26.332
526.05	26.292
526.39	26.362
526.74	26.260
527.08	26.113
527.43	26.107
527.77	26.128
528.12	26.001
528.46	25.942
528.81	25.942
529.15	25.830
529.50	25.785
529.84	25.694
530.19	25.617
530.53	25.479
530.88	25.381
531.22	25.283
531.57	25.218
531.91	25.061
532.26	24.952
532.60	24.879
532.94	24.702
533.29	24.595
533.63	24.402
533.98	24.249
534.32	24.196
534.67	23.921
535.01	23.852
535.35	23.634
535.70	23.489
536.04	23.300
536.39	23.107
536.73	22.946
537.07	22.760
537.42	22.617
537.76	22.440
538.11	22.227
538.45	22.112
538.79	21.845
539.14	21.673
539.48	21.490
539.82	21.371
540.17	21.175
540.51	21.046
540.85	20.883
541.20	20.664
541.54	20.616
541.89	20.459
542.23	20.345
542.57	20.250
542.92	20.167
543.26	20.053
543.60	19.917
543.94	19.922
544.29	19.819
544.63	19.758
544.97	19.713
545.32	19.723
545.66	19.669
546.00	19.705
546.35	19.682
546.69	19.669
547.03	19.657
547.37	19.683
547.72	19.632
548.06	19.756
548.40	19.780
548.75	19.857
549.09	19.922
549.43	19.951
549.77	19.991
550.12	20.020
550.46	20.096
550.80	20.154
551.14	20.309
551.49	20.328
551.83	20.456
552.17	20.596
552.51	20.665
552.85	20.787
553.20	20.897
553.54	21.109
553.88	21.215
554.22	21.311
554.56	21.545
554.91	21.774
555.25	21.929
555.59	22.084
555.93	22.287
556.27	22.471
556.62	22.656
556.96	22.899
557.30	23.045
557.64	23.235
557.98	23.485
558.32	23.670
558.67	23.861
559.01	24.079
559.35	24.290
559.69	24.480
560.03	24.637
560.37	24.948
560.71	25.112
561.05	25.337
561.40	25.473
561.74	25.640
562.08	25.881
562.42	26.064
562.76	26.222
563.10	26.358
563.44	26.564
563.78	26.715
564.12	26.902
564.46	26.991
564.81	27.099
565.15	27.169
565.49	27.309
565.83	27.457
566.17	27.512
566.51	27.609
566.85	27.691
567.19	27.746
567.53	27.797
567.87	27.937
568.21	27.918
568.55	27.897
568.89	28.101
569.23	28.033
569.57	28.043
569.91	28.109
570.25	28.065
570.59	28.074
570.93	28.070
571.27	27.985
571.61	28.003
571.95	27.992
572.29	27.941
572.63	27.903
572.97	27.856
573.31	27.722
573.65	27.722
573.99	27.606
574.33	27.585
574.67	27.522
575.01	27.363
575.35	27.333
575.69	27.211
576.03	27.217
576.37	27.065
576.71	26.954
577.05	26.782
577.39	26.731
577.73	26.584
578.06	26.427
578.40	26.316
578.74	26.226
579.08	25.987
579.42	25.919
579.76	25.723
580.10	25.566
580.44	25.442
580.78	25.258
581.12	25.085
581.45	24.906
581.79	24.756
582.13	24.613
582.47	24.473
582.81	24.260
583.15	24.144
583.49	23.989
583.83	23.869
584.16	23.736
584.50	23.588
584.84	23.515
585.18	23.355
585.52	23.191
585.86	23.056
586.19	22.948
586.53	22.899
586.87	22.733
587.21	22.605
587.55	22.383
587.88	22.277
588.22	22.195
588.56	21.985
588.90	21.868
589.24	21.697
589.57	21.515
589.91	21.337
590.25	21.109
590.59	20.953
590.92	20.750
591.26	20.641
591.60	20.392
591.94	20.153
592.27	19.993
592.61	19.717
592.95	19.570
593.29	19.289
593.62	19.096
593.96	18.847
594.30	18.580
594.64	18.295
594.97	17.962
595.31	17.699
595.65	17.393
595.98	17.110
596.32	16.726
596.66	16.393
597.00	15.949
597.33	15.628
597.67	15.234
598.01	14.837
598.34	14.453
598.68	14.067
599.02	13.734
599.35	13.332
599.69	12.985
600.03	12.702
600.36	12.351
600.70	12.036
601.03	11.796
601.37	11.513
601.71	11.244
602.04	10.990
602.38	10.777
602.72	10.570
603.05	10.330
603.39	10.099
603.72	9.884
604.06	9.643
604.40	9.411
604.73	9.201
605.07	8.956
605.40	8.692
605.74	8.518
606.08	8.287
606.41	8.038
606.75	7.795
607.08	7.564
607.42	7.304
607.75	7.096
608.09	6.821
608.42	6.623
608.76	6.356
609.10	6.171
609.43	5.922
609.77	5.701
610.10	5.496
610.44	5.270
610.77	5.033
611.11	4.862
611.44	4.645
611.78	4.455
612.11	4.231
612.45	4.076
612.78	3.845
613.12	3.710
613.45	3.514
613.79	3.360
614.12	3.207
614.46	3.048
614.79	2.885
615.13	2.749
615.46	2.644
615.79	2.499
616.13	2.397
616.46	2.293
616.80	2.210
617.13	2.110
617.47	2.027
617.80	1.941
618.13	1.870
618.47	1.758
618.80	1.733
619.14	1.663
619.47	1.611
619.81	1.550
620.14	1.489
620.47	1.433
620.81	1.382
621.14	1.352
621.47	1.309
621.81	1.305
622.14	1.235
622.48	1.186
622.81	1.151
623.14	1.131
623.48	1.111
623.81	1.091
624.14	1.047
624.48	1.050
624.81	1.005
625.14	1.000
625.48	1.004
625.81	0.977
626.14	0.984
626.48	0.948
626.81	0.987
627.14	0.989
627.48	0.949
627.81	0.980
628.14	1.012
628.47	1.015
628.81	1.013
629.14	1.037
629.47	1.072
629.81	1.089
630.14	1.131
630.47	1.168
630.80	1.215
631.14	1.275
631.47	1.302
631.80	1.381
632.13	1.463
632.47	1.500
632.80	1.600
