SpectraSuite Data File
++++++++++++++++++++++++++++++++++++
Date: Mon Apr 27 20:53:30 BST 2015
User: mpfc3
Dark Spectrum Present: Yes
Reference Spectrum Present: Yes
Number of Sampled Component Spectra: 1
Spectrometers: USB2E3636
Integration Time (usec): 30000 (USB2E3636)
Spectra Averaged: 100 (USB2E3636)
Boxcar Smoothing: 0 (USB2E3636)
Correct for Electrical Dark: No (USB2E3636)
Strobe/Lamp Enabled: No (USB2E3636)
Correct for Detector Non-linearity: No (USB2E3636)
Correct for Stray Light: No (USB2E3636)
Number of Pixels in Processed Spectrum: 2048
>>>>>Begin Processed Spectral Data<<<<<
180.28	0.000
180.65	458.140
181.02	368.944
181.39	339.326
181.77	2404.348
182.14	621.250
182.51	513.636
182.88	386.905
183.25	398.065
183.63	738.571
184.00	475.472
184.37	4254.545
184.74	600.000
185.11	345.143
185.49	412.000
185.86	341.243
186.23	404.082
186.60	621.429
186.97	812.308
187.35	452.137
187.72	562.626
188.09	496.748
188.46	480.620
188.83	735.526
189.20	-138.630
189.58	-26.322
189.95	-20.280
190.32	-19.590
190.69	-23.359
191.06	-21.290
191.43	-21.033
191.81	-20.818
192.18	-23.921
192.55	-19.752
192.92	-23.604
193.29	-23.151
193.66	-22.064
194.03	-25.412
194.41	-23.514
194.78	-21.639
195.15	-23.448
195.52	-21.582
195.89	-23.061
196.26	-24.291
196.63	-23.355
197.01	-25.493
197.38	-20.298
197.75	-25.491
198.12	-22.931
198.49	-24.392
198.86	-22.805
199.23	-22.700
199.60	-21.413
199.98	-22.341
200.35	-20.065
200.72	-22.715
201.09	-22.149
201.46	-20.195
201.83	-21.634
202.20	-22.389
202.57	-24.485
202.94	-25.138
203.31	-20.986
203.69	-19.677
204.06	-22.782
204.43	-24.381
204.80	-21.802
205.17	-22.005
205.54	-24.088
205.91	-22.996
206.28	-29.532
206.65	-21.851
207.02	-22.392
207.39	-19.704
207.76	-22.840
208.14	-24.730
208.51	-22.517
208.88	-27.319
209.25	-20.416
209.62	-29.698
209.99	-24.077
210.36	-27.640
210.73	-26.188
211.10	-23.269
211.47	-21.955
211.84	-26.640
212.21	-25.303
212.58	-22.541
212.95	-24.752
213.32	-29.245
213.69	-27.893
214.06	-21.769
214.43	-24.766
214.80	-25.496
215.17	-24.315
215.55	-24.501
215.92	-24.383
216.29	-27.078
216.66	-28.370
217.03	-20.995
217.40	-24.181
217.77	-25.775
218.14	-25.313
218.51	-25.971
218.88	-29.014
219.25	-27.667
219.62	-25.663
219.99	-23.146
220.36	-27.216
220.73	-27.876
221.10	-29.030
221.47	-29.881
221.84	-26.359
222.21	-27.152
222.58	-30.050
222.95	-26.249
223.32	-27.609
223.69	-25.169
224.06	-30.865
224.43	-28.246
224.80	-28.137
225.17	-25.501
225.54	-25.583
225.91	-27.631
226.27	-24.319
226.64	-26.146
227.01	-29.008
227.38	-26.625
227.75	-21.838
228.12	-23.958
228.49	-31.171
228.86	-27.572
229.23	-32.041
229.60	-32.561
229.97	-25.358
230.34	-25.401
230.71	-34.585
231.08	-30.827
231.45	-26.597
231.82	-32.547
232.19	-27.473
232.56	-28.214
232.93	-31.879
233.30	-29.842
233.66	-31.402
234.03	-28.795
234.40	-29.887
234.77	-26.227
235.14	-31.220
235.51	-26.508
235.88	-25.149
236.25	-31.853
236.62	-27.514
236.99	-30.485
237.36	-34.073
237.73	-32.762
238.09	-27.273
238.46	-29.523
238.83	-33.525
239.20	-32.201
239.57	-30.180
239.94	-30.255
240.31	-33.357
240.68	-29.272
241.05	-31.204
241.41	-28.276
241.78	-39.283
242.15	-26.217
242.52	-34.236
242.89	-29.752
243.26	-31.890
243.63	-31.153
244.00	-33.309
244.36	-27.746
244.73	-32.316
245.10	-32.364
245.47	-34.490
245.84	-32.325
246.21	-36.985
246.58	-32.197
246.94	-36.625
247.31	-36.504
247.68	-32.662
248.05	-28.381
248.42	-34.273
248.79	-33.907
249.15	-28.216
249.52	-35.934
249.89	-29.767
250.26	-25.950
250.63	-28.722
251.00	-31.858
251.36	-27.155
251.73	-35.795
252.10	-28.930
252.47	-36.854
252.84	-41.423
253.20	-40.234
253.57	-32.058
253.94	-39.565
254.31	-36.328
254.68	-32.338
255.05	-33.463
255.41	-28.807
255.78	-38.226
256.15	-27.719
256.52	-45.656
256.88	-34.949
257.25	-39.886
257.62	-34.277
257.99	-32.648
258.36	-34.444
258.72	-31.170
259.09	-30.000
259.46	-39.081
259.83	-41.181
260.19	-29.567
260.56	-39.492
260.93	-40.295
261.30	-34.177
261.67	-31.633
262.03	-34.551
262.40	-36.287
262.77	-29.124
263.14	-31.193
263.50	-45.500
263.87	-33.410
264.24	-36.983
264.61	-38.979
264.97	-32.680
265.34	-42.021
265.71	-39.573
266.07	-36.830
266.44	-37.618
266.81	-38.119
267.18	-38.013
267.54	-39.514
267.91	-41.477
268.28	-36.868
268.64	-38.195
269.01	-35.067
269.38	-39.952
269.75	-37.194
270.11	-36.452
270.48	-26.637
270.85	-41.162
271.21	-39.900
271.58	-40.729
271.95	-33.924
272.32	-39.886
272.68	-36.855
273.05	-34.072
273.42	-42.745
273.78	-38.449
274.15	-35.731
274.52	-43.983
274.88	-40.204
275.25	-28.050
275.62	-38.816
275.98	-43.344
276.35	-38.054
276.72	-37.908
277.08	-39.741
277.45	-36.126
277.82	-34.265
278.18	-35.994
278.55	-35.895
278.92	-41.229
279.28	-41.570
279.65	-36.672
280.01	-37.619
280.38	-43.139
280.75	-45.633
281.11	-36.386
281.48	-39.785
281.85	-36.484
282.21	-38.686
282.58	-35.814
282.95	-42.990
283.31	-39.183
283.68	-35.873
284.04	-32.151
284.41	-39.472
284.78	-39.106
285.14	-30.452
285.51	-34.646
285.87	-34.266
286.24	-27.865
286.61	-35.181
286.97	-49.350
287.34	-36.187
287.70	-32.009
288.07	-29.118
288.44	-39.700
288.80	-44.528
289.17	-39.899
289.53	-42.267
289.90	-37.326
290.26	-38.013
290.63	-40.486
291.00	-47.244
291.36	-33.969
291.73	-35.709
292.09	-35.079
292.46	-33.016
292.82	-41.952
293.19	-38.525
293.56	-36.746
293.92	-38.852
294.29	-36.550
294.65	-37.480
295.02	-35.479
295.38	-32.904
295.75	-36.278
296.11	-37.838
296.48	-31.323
296.84	-35.766
297.21	-33.673
297.57	-40.179
297.94	-33.359
298.30	-34.927
298.67	-41.269
299.04	-33.700
299.40	-35.875
299.77	-38.249
300.13	-37.345
300.50	-37.204
300.86	-37.167
301.23	-37.865
301.59	-30.847
301.96	-26.977
302.32	-33.691
302.69	-31.227
303.05	-37.173
303.42	-34.595
303.78	-40.277
304.14	-32.466
304.51	-31.448
304.87	-28.305
305.24	-26.676
305.60	-34.892
305.97	-29.977
306.33	-35.395
306.70	-34.167
307.06	-30.990
307.43	-31.828
307.79	-38.467
308.16	-30.464
308.52	-34.168
308.88	-32.623
309.25	-34.831
309.61	-35.905
309.98	-34.514
310.34	-25.523
310.71	-29.404
311.07	-32.613
311.44	-27.977
311.80	-31.384
312.16	-30.994
312.53	-33.573
312.89	-29.890
313.26	-26.243
313.62	-37.189
313.98	-25.737
314.35	-27.356
314.71	-33.218
315.08	-26.316
315.44	-31.172
315.80	-31.403
316.17	-25.634
316.53	-28.048
316.90	-25.378
317.26	-28.352
317.62	-27.172
317.99	-24.843
318.35	-32.057
318.72	-26.018
319.08	-24.599
319.44	-25.237
319.81	-24.842
320.17	-25.866
320.53	-27.957
320.90	-22.874
321.26	-24.383
321.62	-22.854
321.99	-28.117
322.35	-24.745
322.72	-28.000
323.08	-24.218
323.44	-25.350
323.81	-24.465
324.17	-26.034
324.53	-25.640
324.90	-23.329
325.26	-24.323
325.62	-23.687
325.99	-18.656
326.35	-25.773
326.71	-18.516
327.08	-25.159
327.44	-17.796
327.80	-19.368
328.16	-22.117
328.53	-22.073
328.89	-21.465
329.25	-22.532
329.62	-16.761
329.98	-15.368
330.34	-18.564
330.71	-22.026
331.07	-21.525
331.43	-19.488
331.79	-18.867
332.16	-18.706
332.52	-19.700
332.88	-15.242
333.24	-20.279
333.61	-17.600
333.97	-15.229
334.33	-17.522
334.70	-17.148
335.06	-15.970
335.42	-15.832
335.78	-18.590
336.15	-13.638
336.51	-16.066
336.87	-16.430
337.23	-17.850
337.60	-14.005
337.96	-16.297
338.32	-13.836
338.68	-14.755
339.04	-15.055
339.41	-13.970
339.77	-13.262
340.13	-10.266
340.49	-12.665
340.86	-14.061
341.22	-14.228
341.58	-11.803
341.94	-13.433
342.30	-11.444
342.67	-11.435
343.03	-9.797
343.39	-10.435
343.75	-12.968
344.11	-11.907
344.48	-10.088
344.84	-11.542
345.20	-10.483
345.56	-10.741
345.92	-11.650
346.28	-10.097
346.65	-8.692
347.01	-9.323
347.37	-11.770
347.73	-11.788
348.09	-9.927
348.45	-10.332
348.82	-5.532
349.18	-12.023
349.54	-10.242
349.90	-8.108
350.26	-8.658
350.62	-9.939
350.98	-10.152
351.35	-7.683
351.71	-8.182
352.07	-8.817
352.43	-8.988
352.79	-8.320
353.15	-8.208
353.51	-7.570
353.87	-7.306
354.24	-8.803
354.60	-8.494
354.96	-6.856
355.32	-7.272
355.68	-5.772
356.04	-7.008
356.40	-7.215
356.76	-7.015
357.12	-6.411
357.48	-5.305
357.85	-6.853
358.21	-7.499
358.57	-6.620
358.93	-5.005
359.29	-5.308
359.65	-5.419
360.01	-5.621
360.37	-5.542
360.73	-6.138
361.09	-5.751
361.45	-6.749
361.81	-6.064
362.17	-5.497
362.53	-4.585
362.89	-6.125
363.25	-5.328
363.62	-4.819
363.98	-5.610
364.34	-5.885
364.70	-3.507
365.06	-4.166
365.42	-3.800
365.78	-3.910
366.14	-5.300
366.50	-4.130
366.86	-2.946
367.22	-4.392
367.58	-2.525
367.94	-3.619
368.30	-4.052
368.66	-4.796
369.02	-3.143
369.38	-3.961
369.74	-4.373
370.10	-3.921
370.46	-3.759
370.82	-3.663
371.18	-4.143
371.54	-4.020
371.90	-3.559
372.26	-3.362
372.62	-2.819
372.98	-2.720
373.33	-2.414
373.69	-2.751
374.05	-2.561
374.41	-2.928
374.77	-3.098
375.13	-2.948
375.49	-2.466
375.85	-2.973
376.21	-2.346
376.57	-2.759
376.93	-2.889
377.29	-2.069
377.65	-2.917
378.01	-2.127
378.37	-2.366
378.73	-2.473
379.08	-2.213
379.44	-1.750
379.80	-1.887
380.16	-1.646
380.52	-1.401
380.88	-1.534
381.24	-2.084
381.60	-1.968
381.96	-1.480
382.32	-1.281
382.67	-1.301
383.03	-1.767
383.39	-1.173
383.75	-1.367
384.11	-1.396
384.47	-1.049
384.83	-0.951
385.19	-1.008
385.54	-0.802
385.90	-1.154
386.26	-0.647
386.62	-0.810
386.98	0.029
387.34	0.262
387.70	-0.232
388.05	0.289
388.41	0.117
388.77	0.374
389.13	0.304
389.49	0.677
389.85	0.880
390.20	0.543
390.56	1.007
390.92	0.224
391.28	0.674
391.64	0.784
391.99	0.119
392.35	1.060
392.71	1.019
393.07	1.546
393.43	1.712
393.78	1.562
394.14	1.301
394.50	1.354
394.86	2.205
395.22	1.913
395.57	1.775
395.93	2.351
396.29	2.581
396.65	2.502
397.00	2.517
397.36	2.563
397.72	2.336
398.08	2.558
398.43	2.901
398.79	3.080
399.15	3.068
399.51	3.317
399.86	2.849
400.22	3.531
400.58	3.696
400.94	4.014
401.29	3.833
401.65	3.845
402.01	4.132
402.37	3.929
402.72	4.046
403.08	4.287
403.44	4.211
403.79	4.565
404.15	4.520
404.51	4.730
404.86	4.852
405.22	5.178
405.58	5.016
405.94	4.995
406.29	5.322
406.65	5.301
407.01	5.484
407.36	5.676
407.72	5.776
408.08	5.807
408.43	5.947
408.79	5.933
409.15	5.963
409.50	6.067
409.86	6.590
410.22	6.345
410.57	6.773
410.93	6.630
411.29	6.728
411.64	6.813
412.00	6.846
412.35	7.296
412.71	7.006
413.07	7.228
413.42	7.270
413.78	7.360
414.14	7.397
414.49	7.674
414.85	7.585
415.20	7.966
415.56	7.995
415.92	8.231
416.27	8.184
416.63	8.199
416.98	8.356
417.34	8.610
417.70	8.755
418.05	8.765
418.41	8.693
418.76	8.951
419.12	9.178
419.47	9.159
419.83	9.078
420.19	9.335
420.54	9.286
420.90	9.631
421.25	9.364
421.61	9.843
421.96	9.717
422.32	9.975
422.67	9.963
423.03	10.078
423.39	10.220
423.74	10.548
424.10	10.339
424.45	10.532
424.81	10.720
425.16	11.019
425.52	10.821
425.87	10.984
426.23	11.148
426.58	11.195
426.94	11.235
427.29	11.349
427.65	11.732
428.00	11.515
428.36	11.615
428.71	11.541
429.07	11.798
429.42	12.050
429.78	12.064
430.13	12.199
430.49	12.260
430.84	12.407
431.19	12.556
431.55	12.415
431.90	12.597
432.26	12.706
432.61	12.773
432.97	12.959
433.32	13.254
433.68	13.223
434.03	12.939
434.39	13.379
434.74	13.313
435.09	13.534
435.45	13.505
435.80	13.721
436.16	13.700
436.51	13.919
436.86	13.900
437.22	14.059
437.57	14.172
437.93	14.192
438.28	14.093
438.63	14.381
438.99	14.369
439.34	14.419
439.70	14.681
440.05	14.724
440.40	14.712
440.76	14.772
441.11	14.972
441.47	15.018
441.82	15.077
442.17	15.165
442.53	15.225
442.88	15.445
443.23	15.342
443.59	15.443
443.94	15.690
444.29	15.625
444.65	15.784
445.00	15.795
445.35	15.790
445.71	15.889
446.06	15.970
446.41	16.089
446.77	16.230
447.12	16.295
447.47	16.456
447.83	16.411
448.18	16.603
448.53	16.512
448.89	16.694
449.24	16.742
449.59	16.749
449.94	16.939
450.30	16.871
450.65	17.120
451.00	17.157
451.36	17.185
451.71	17.376
452.06	17.409
452.41	17.503
452.77	17.639
453.12	17.638
453.47	17.836
453.82	17.736
454.18	17.784
454.53	17.919
454.88	18.108
455.23	18.215
455.59	18.220
455.94	18.297
456.29	18.408
456.64	18.470
457.00	18.603
457.35	18.609
457.70	18.712
458.05	18.793
458.40	18.989
458.76	18.998
459.11	19.168
459.46	19.075
459.81	19.243
460.16	19.376
460.52	19.431
460.87	19.644
461.22	19.601
461.57	19.668
461.92	19.824
462.28	19.854
462.63	19.915
462.98	19.948
463.33	20.085
463.68	20.194
464.03	20.232
464.38	20.305
464.74	20.432
465.09	20.523
465.44	20.469
465.79	20.636
466.14	20.645
466.49	20.804
466.84	20.818
467.20	20.798
467.55	20.989
467.90	20.974
468.25	21.143
468.60	21.218
468.95	21.198
469.30	21.332
469.65	21.326
470.00	21.482
470.36	21.485
470.71	21.522
471.06	21.557
471.41	21.535
471.76	21.688
472.11	21.726
472.46	21.750
472.81	21.786
473.16	21.870
473.51	21.846
473.86	21.837
474.21	21.894
474.56	22.012
474.91	22.041
475.26	22.068
475.62	22.004
475.97	22.122
476.32	22.148
476.67	22.068
477.02	22.127
477.37	22.105
477.72	22.180
478.07	22.216
478.42	22.199
478.77	22.179
479.12	22.225
479.47	22.380
479.82	22.239
480.17	22.222
480.52	22.196
480.87	22.272
481.22	22.348
481.57	22.328
481.92	22.336
482.27	22.274
482.62	22.284
482.97	22.303
483.32	22.384
483.67	22.373
484.02	22.249
484.36	22.363
484.71	22.277
485.06	22.414
485.41	22.477
485.76	22.506
486.11	22.456
486.46	22.561
486.81	22.530
487.16	22.654
487.51	22.653
487.86	22.712
488.21	22.846
488.56	22.778
488.91	22.816
489.25	22.885
489.60	22.916
489.95	22.993
490.30	23.093
490.65	23.203
491.00	23.192
491.35	23.330
491.70	23.275
492.05	23.393
492.39	23.420
492.74	23.554
493.09	23.546
493.44	23.592
493.79	23.699
494.14	23.754
494.49	23.828
494.83	23.916
495.18	24.020
495.53	24.080
495.88	24.125
496.23	24.252
496.58	24.315
496.92	24.307
497.27	24.406
497.62	24.448
497.97	24.524
498.32	24.606
498.67	24.648
499.01	24.710
499.36	24.792
499.71	24.863
500.06	24.932
500.41	24.900
500.75	24.976
501.10	25.033
501.45	25.169
501.80	25.194
502.14	25.175
502.49	25.262
502.84	25.320
503.19	25.367
503.53	25.439
503.88	25.481
504.23	25.453
504.58	25.591
504.92	25.544
505.27	25.588
505.62	25.645
505.97	25.651
506.31	25.655
506.66	25.682
507.01	25.733
507.36	25.705
507.70	25.765
508.05	25.822
508.40	25.762
508.74	25.810
509.09	25.674
509.44	25.704
509.79	25.721
510.13	25.675
510.48	25.624
510.83	25.574
511.17	25.632
511.52	25.640
511.87	25.584
512.21	25.616
512.56	25.567
512.91	25.661
513.25	25.654
513.60	25.599
513.95	25.661
514.29	25.691
514.64	25.789
514.98	25.747
515.33	25.789
515.68	25.929
516.02	25.810
516.37	25.892
516.72	25.927
517.06	25.942
517.41	26.009
517.75	26.014
518.10	26.079
518.45	25.977
518.79	26.068
519.14	26.101
519.48	26.157
519.83	26.060
520.18	26.136
520.52	26.112
520.87	26.156
521.21	26.169
521.56	26.160
521.90	26.157
522.25	26.194
522.60	26.226
522.94	26.176
523.29	26.151
523.63	26.183
523.98	26.122
524.32	26.152
524.67	26.136
525.01	26.123
525.36	26.059
525.70	26.031
526.05	26.011
526.39	26.032
526.74	25.916
527.08	25.927
527.43	25.837
527.77	25.848
528.12	25.781
528.46	25.711
528.81	25.589
529.15	25.537
529.50	25.522
529.84	25.391
530.19	25.319
530.53	25.174
530.88	25.130
531.22	25.106
531.57	24.982
531.91	24.816
532.26	24.681
532.60	24.576
532.94	24.425
533.29	24.402
533.63	24.198
533.98	24.045
534.32	23.940
534.67	23.728
535.01	23.560
535.35	23.371
535.70	23.305
536.04	23.073
536.39	22.841
536.73	22.662
537.07	22.463
537.42	22.356
537.76	22.208
538.11	22.003
538.45	21.823
538.79	21.612
539.14	21.439
539.48	21.295
539.82	21.175
540.17	20.982
540.51	20.808
540.85	20.683
541.20	20.479
541.54	20.364
541.89	20.207
542.23	20.093
542.57	20.059
542.92	19.924
543.26	19.849
543.60	19.730
543.94	19.677
544.29	19.603
544.63	19.591
544.97	19.551
545.32	19.533
545.66	19.481
546.00	19.453
546.35	19.475
546.69	19.473
547.03	19.483
547.37	19.475
547.72	19.490
548.06	19.570
548.40	19.570
548.75	19.662
549.09	19.633
549.43	19.681
549.77	19.769
550.12	19.797
550.46	19.890
550.80	19.982
551.14	20.054
551.49	20.137
551.83	20.228
552.17	20.378
552.51	20.511
552.85	20.635
553.20	20.711
553.54	20.938
553.88	21.067
554.22	21.147
554.56	21.354
554.91	21.548
555.25	21.678
555.59	21.878
555.93	22.102
556.27	22.253
556.62	22.500
556.96	22.721
557.30	22.814
557.64	23.052
557.98	23.253
558.32	23.429
558.67	23.667
559.01	23.906
559.35	24.056
559.69	24.334
560.03	24.487
560.37	24.704
560.71	24.932
561.05	25.180
561.40	25.242
561.74	25.451
562.08	25.654
562.42	25.817
562.76	26.002
563.10	26.198
563.44	26.277
563.78	26.444
564.12	26.603
564.46	26.763
564.81	26.866
565.15	26.997
565.49	27.099
565.83	27.217
566.17	27.302
566.51	27.354
566.85	27.440
567.19	27.552
567.53	27.598
567.87	27.674
568.21	27.692
568.55	27.671
568.89	27.796
569.23	27.782
569.57	27.854
569.91	27.813
570.25	27.832
570.59	27.826
570.93	27.787
571.27	27.727
571.61	27.785
571.95	27.802
572.29	27.648
572.63	27.645
572.97	27.640
573.31	27.551
573.65	27.481
573.99	27.395
574.33	27.348
574.67	27.317
575.01	27.147
575.35	27.121
575.69	26.928
576.03	26.971
576.37	26.868
576.71	26.670
577.05	26.569
577.39	26.508
577.73	26.383
578.06	26.281
578.40	26.115
578.74	25.951
579.08	25.793
579.42	25.696
579.76	25.523
580.10	25.331
580.44	25.230
580.78	24.995
581.12	24.877
581.45	24.711
581.79	24.522
582.13	24.373
582.47	24.249
582.81	24.071
583.15	23.907
583.49	23.746
583.83	23.649
584.16	23.477
584.50	23.375
584.84	23.272
585.18	23.100
585.52	22.999
585.86	22.862
586.19	22.764
586.53	22.654
586.87	22.484
587.21	22.373
587.55	22.189
587.88	22.134
588.22	21.925
588.56	21.746
588.90	21.629
589.24	21.502
589.57	21.301
589.91	21.148
590.25	20.940
590.59	20.776
590.92	20.630
591.26	20.408
591.60	20.182
591.94	20.015
592.27	19.792
592.61	19.548
592.95	19.337
593.29	19.068
593.62	18.904
593.96	18.650
594.30	18.376
594.64	18.115
594.97	17.832
595.31	17.493
595.65	17.242
595.98	16.890
596.32	16.565
596.66	16.187
597.00	15.845
597.33	15.459
597.67	15.064
598.01	14.672
598.34	14.333
598.68	13.927
599.02	13.552
599.35	13.156
599.69	12.877
600.03	12.553
600.36	12.190
600.70	11.910
601.03	11.613
601.37	11.387
601.71	11.152
602.04	10.856
602.38	10.614
602.72	10.440
603.05	10.191
603.39	9.999
603.72	9.765
604.06	9.507
604.40	9.318
604.73	9.079
605.07	8.837
605.40	8.624
605.74	8.398
606.08	8.166
606.41	7.919
606.75	7.678
607.08	7.461
607.42	7.231
607.75	7.022
608.09	6.766
608.42	6.530
608.76	6.299
609.10	6.062
609.43	5.851
609.77	5.601
610.10	5.403
610.44	5.154
610.77	4.959
611.11	4.757
611.44	4.536
611.78	4.370
612.11	4.177
612.45	3.977
612.78	3.807
613.12	3.621
613.45	3.419
613.79	3.278
614.12	3.127
614.46	2.966
614.79	2.844
615.13	2.687
615.46	2.555
615.79	2.446
616.13	2.349
616.46	2.217
616.80	2.159
617.13	2.032
617.47	1.942
617.80	1.861
618.13	1.799
618.47	1.710
618.80	1.678
619.14	1.602
619.47	1.536
619.81	1.505
620.14	1.460
620.47	1.390
620.81	1.352
621.14	1.309
621.47	1.256
621.81	1.245
622.14	1.175
622.48	1.144
622.81	1.104
623.14	1.101
623.48	1.029
623.81	1.048
624.14	0.999
624.48	1.001
624.81	0.956
625.14	0.947
625.48	0.941
625.81	0.946
626.14	0.919
626.48	0.890
626.81	0.905
627.14	0.942
627.48	0.918
627.81	0.923
628.14	0.957
628.47	0.993
628.81	0.987
629.14	0.995
629.47	1.029
629.81	1.052
630.14	1.066
630.47	1.127
630.80	1.170
631.14	1.210
631.47	1.251
631.80	1.322
632.13	1.396
