SpectraSuite Data File
++++++++++++++++++++++++++++++++++++
Date: Mon Apr 27 20:47:21 BST 2015
User: mpfc3
Dark Spectrum Present: Yes
Reference Spectrum Present: Yes
Number of Sampled Component Spectra: 1
Spectrometers: USB2E3636
Integration Time (usec): 30000 (USB2E3636)
Spectra Averaged: 100 (USB2E3636)
Boxcar Smoothing: 0 (USB2E3636)
Correct for Electrical Dark: No (USB2E3636)
Strobe/Lamp Enabled: No (USB2E3636)
Correct for Detector Non-linearity: No (USB2E3636)
Correct for Stray Light: No (USB2E3636)
Number of Pixels in Processed Spectrum: 2048
>>>>>Begin Processed Spectral Data<<<<<
180.28	0.000
180.65	396.124
181.02	296.273
181.39	275.843
181.77	1882.609
182.14	525.000
182.51	427.273
182.88	289.881
183.25	316.129
183.63	638.571
184.00	378.302
184.37	3936.364
184.74	427.551
185.11	297.714
185.49	308.000
185.86	270.621
186.23	290.476
186.60	502.381
186.97	672.308
187.35	387.179
187.72	488.889
188.09	404.878
188.46	359.690
188.83	655.263
189.20	-106.027
189.58	-20.079
189.95	-14.201
190.32	-16.514
190.69	-18.854
191.06	-17.634
191.43	-14.793
191.81	-12.690
192.18	-16.767
192.55	-18.676
192.92	-16.162
193.29	-15.008
193.66	-20.472
194.03	-15.807
194.41	-14.150
194.78	-15.265
195.15	-19.272
195.52	-13.620
195.89	-16.042
196.26	-16.265
196.63	-20.943
197.01	-15.077
197.38	-12.115
197.75	-19.012
198.12	-17.847
198.49	-20.299
198.86	-17.827
199.23	-15.385
199.60	-15.197
199.98	-20.417
200.35	-14.722
200.72	-15.052
201.09	-16.941
201.46	-16.351
201.83	-16.556
202.20	-15.801
202.57	-17.084
202.94	-17.293
203.31	-19.342
203.69	-15.538
204.06	-14.458
204.43	-17.117
204.80	-16.908
205.17	-14.092
205.54	-15.138
205.91	-19.376
206.28	-17.560
206.65	-16.210
207.02	-19.161
207.39	-15.532
207.76	-16.511
208.14	-16.657
208.51	-18.476
208.88	-17.018
209.25	-12.972
209.62	-21.103
209.99	-17.490
210.36	-19.388
210.73	-17.760
211.10	-15.512
211.47	-14.972
211.84	-16.968
212.21	-18.949
212.58	-18.208
212.95	-19.453
213.32	-21.050
213.69	-21.187
214.06	-16.772
214.43	-17.640
214.80	-18.028
215.17	-18.717
215.55	-18.625
215.92	-19.330
216.29	-23.472
216.66	-15.533
217.03	-16.715
217.40	-20.250
217.77	-23.283
218.14	-20.955
218.51	-18.204
218.88	-21.823
219.25	-20.409
219.62	-19.157
219.99	-18.660
220.36	-20.225
220.73	-21.934
221.10	-25.030
221.47	-21.218
221.84	-18.488
222.21	-20.909
222.58	-19.825
222.95	-20.493
223.32	-17.840
223.69	-19.214
224.06	-21.691
224.43	-20.583
224.80	-16.920
225.17	-17.794
225.54	-17.730
225.91	-19.238
226.27	-16.149
226.64	-17.753
227.01	-20.961
227.38	-20.379
227.75	-18.502
228.12	-15.820
228.49	-21.641
228.86	-22.461
229.23	-22.585
229.60	-21.377
229.97	-17.295
230.34	-21.725
230.71	-25.585
231.08	-21.873
231.45	-16.037
231.82	-23.117
232.19	-16.140
232.56	-18.919
232.93	-24.765
233.30	-21.739
233.66	-22.776
234.03	-22.124
234.40	-25.105
234.77	-16.745
235.14	-22.050
235.51	-18.441
235.88	-18.416
236.25	-21.987
236.62	-20.182
236.99	-22.556
237.36	-25.125
237.73	-25.981
238.09	-17.096
238.46	-19.986
238.83	-26.633
239.20	-27.105
239.57	-23.343
239.94	-25.362
240.31	-23.147
240.68	-23.249
241.05	-25.929
241.41	-19.103
241.78	-27.460
242.15	-21.001
242.52	-22.569
242.89	-22.176
243.26	-20.687
243.63	-23.066
244.00	-25.127
244.36	-23.592
244.73	-21.817
245.10	-23.636
245.47	-26.392
245.84	-22.606
246.21	-22.721
246.58	-26.904
246.94	-22.550
247.31	-25.442
247.68	-21.367
248.05	-18.108
248.42	-26.113
248.79	-25.591
249.15	-23.026
249.52	-22.206
249.89	-24.527
250.26	-22.076
250.63	-20.857
251.00	-26.032
251.36	-18.894
251.73	-23.512
252.10	-19.095
252.47	-23.117
252.84	-29.960
253.20	-27.344
253.57	-23.948
253.94	-28.687
254.31	-25.059
254.68	-27.409
255.05	-25.039
255.41	-20.780
255.78	-30.926
256.15	-22.885
256.52	-32.213
256.88	-24.003
257.25	-30.750
257.62	-23.506
257.99	-28.775
258.36	-22.332
258.72	-25.208
259.09	-22.463
259.46	-22.666
259.83	-26.861
260.19	-22.678
260.56	-28.866
260.93	-33.170
261.30	-23.455
261.67	-21.286
262.03	-23.364
262.40	-29.030
262.77	-25.182
263.14	-22.810
263.50	-36.917
263.87	-24.228
264.24	-24.412
264.61	-29.466
264.97	-24.138
265.34	-32.478
265.71	-30.460
266.07	-29.293
266.44	-25.789
266.81	-23.845
267.18	-31.034
267.54	-33.198
267.91	-30.032
268.28	-28.711
268.64	-25.786
269.01	-26.556
269.38	-28.329
269.75	-27.488
270.11	-27.339
270.48	-17.188
270.85	-31.097
271.21	-28.965
271.58	-26.640
271.95	-26.754
272.32	-24.715
272.68	-28.594
273.05	-28.489
273.42	-30.118
273.78	-28.029
274.15	-24.024
274.52	-35.085
274.88	-35.963
275.25	-19.576
275.62	-28.536
275.98	-30.699
276.35	-26.187
276.72	-27.113
277.08	-31.466
277.45	-26.403
277.82	-26.358
278.18	-26.576
278.55	-24.612
278.92	-25.627
279.28	-30.579
279.65	-28.470
280.01	-26.032
280.38	-31.818
280.75	-37.701
281.11	-29.903
281.48	-31.927
281.85	-26.484
282.21	-30.532
282.58	-34.424
282.95	-32.264
283.31	-26.442
283.68	-29.365
284.04	-22.415
284.41	-27.828
284.78	-27.967
285.14	-24.221
285.51	-30.157
285.87	-27.506
286.24	-22.547
286.61	-20.246
286.97	-30.963
287.34	-26.171
287.70	-21.620
288.07	-22.404
288.44	-29.203
288.80	-32.749
289.17	-35.165
289.53	-23.239
289.90	-25.841
290.26	-25.369
290.63	-28.248
291.00	-36.833
291.36	-26.183
291.73	-23.299
292.09	-24.286
292.46	-29.921
292.82	-34.279
293.19	-27.092
293.56	-29.286
293.92	-31.557
294.29	-23.404
294.65	-17.353
295.02	-29.670
295.38	-21.835
295.75	-28.312
296.11	-28.256
296.48	-24.207
296.84	-25.547
297.21	-21.691
297.57	-28.003
297.94	-26.439
298.30	-30.794
298.67	-27.408
299.04	-26.080
299.40	-23.580
299.77	-22.161
300.13	-24.767
300.50	-25.920
300.86	-21.021
301.23	-28.187
301.59	-20.565
301.96	-25.277
302.32	-25.403
302.69	-22.803
303.05	-26.178
303.42	-24.942
303.78	-31.130
304.14	-18.530
304.51	-23.680
304.87	-19.109
305.24	-17.713
305.60	-25.835
305.97	-20.736
306.33	-22.653
306.70	-19.394
307.06	-21.234
307.43	-23.390
307.79	-28.947
308.16	-23.841
308.52	-27.614
308.88	-22.704
309.25	-25.393
309.61	-27.671
309.98	-30.520
310.34	-20.363
310.71	-19.088
311.07	-19.652
311.44	-19.727
311.80	-24.251
312.16	-23.246
312.53	-25.360
312.89	-19.008
313.26	-22.859
313.62	-28.697
313.98	-20.040
314.35	-18.847
314.71	-19.764
315.08	-21.579
315.44	-22.803
315.80	-21.526
316.17	-20.014
316.53	-20.187
316.90	-17.949
317.26	-22.548
317.62	-21.032
317.99	-18.931
318.35	-21.736
318.72	-20.483
319.08	-16.954
319.44	-19.685
319.81	-21.176
320.17	-17.636
320.53	-18.722
320.90	-14.132
321.26	-18.704
321.62	-17.594
321.99	-23.005
322.35	-16.717
322.72	-20.923
323.08	-16.744
323.44	-19.939
323.81	-17.004
324.17	-18.346
324.53	-17.384
324.90	-15.885
325.26	-17.003
325.62	-20.478
325.99	-12.326
326.35	-16.875
326.71	-15.495
327.08	-16.030
327.44	-13.397
327.80	-13.723
328.16	-15.514
328.53	-17.703
328.89	-16.042
329.25	-19.045
329.62	-12.516
329.98	-9.418
330.34	-13.462
330.71	-19.076
331.07	-17.712
331.43	-14.651
331.79	-14.710
332.16	-13.076
332.52	-14.786
332.88	-10.044
333.24	-14.421
333.61	-10.675
333.97	-13.158
334.33	-9.861
334.70	-14.559
335.06	-10.716
335.42	-12.454
335.78	-16.828
336.15	-8.829
336.51	-12.663
336.87	-12.006
337.23	-12.044
337.60	-11.259
337.96	-9.867
338.32	-9.804
338.68	-12.066
339.04	-12.491
339.41	-10.894
339.77	-11.560
340.13	-8.595
340.49	-8.680
340.86	-10.816
341.22	-9.847
341.58	-8.671
341.94	-8.756
342.30	-10.336
342.67	-8.456
343.03	-8.139
343.39	-6.947
343.75	-7.541
344.11	-8.193
344.48	-6.774
344.84	-8.073
345.20	-8.112
345.56	-7.123
345.92	-8.293
346.28	-7.421
346.65	-8.140
347.01	-6.436
347.37	-8.209
347.73	-8.424
348.09	-7.243
348.45	-5.934
348.82	-5.158
349.18	-8.185
349.54	-6.663
349.90	-5.551
350.26	-5.940
350.62	-7.321
350.98	-5.278
351.35	-5.525
351.71	-4.682
352.07	-7.004
352.43	-6.837
352.79	-6.577
353.15	-6.217
353.51	-3.827
353.87	-4.792
354.24	-6.166
354.60	-4.860
354.96	-5.393
355.32	-5.203
355.68	-5.028
356.04	-5.000
356.40	-5.460
356.76	-5.324
357.12	-5.330
357.48	-3.936
357.85	-3.501
358.21	-5.072
358.57	-3.865
358.93	-3.495
359.29	-3.744
359.65	-4.021
360.01	-3.539
360.37	-4.140
360.73	-4.339
361.09	-4.052
361.45	-3.391
361.81	-4.021
362.17	-3.127
362.53	-2.642
362.89	-4.476
363.25	-2.977
363.62	-3.288
363.98	-3.051
364.34	-4.307
364.70	-2.217
365.06	-2.892
365.42	-1.774
365.78	-2.856
366.14	-2.526
366.50	-2.276
366.86	-1.560
367.22	-3.439
367.58	-2.801
367.94	-2.539
368.30	-1.866
368.66	-3.453
369.02	-1.397
369.38	-3.051
369.74	-3.652
370.10	-3.284
370.46	-2.318
370.82	-1.843
371.18	-2.844
371.54	-2.564
371.90	-2.092
372.26	-1.805
372.62	-2.056
372.98	-1.854
373.33	-1.283
373.69	-1.844
374.05	-1.069
374.41	-1.666
374.77	-1.374
375.13	-2.073
375.49	-1.304
375.85	-1.766
376.21	-0.569
376.57	-1.909
376.93	-1.075
377.29	-0.763
377.65	-1.820
378.01	-1.349
378.37	-0.972
378.73	-1.401
379.08	-1.578
379.44	-1.125
379.80	-0.284
380.16	-1.124
380.52	-0.818
380.88	-0.300
381.24	-0.377
381.60	-1.142
381.96	-0.576
382.32	-0.481
382.67	-0.169
383.03	-0.932
383.39	-0.174
383.75	-0.142
384.11	-0.243
384.47	-0.084
384.83	0.319
385.19	0.107
385.54	-0.052
385.90	-0.015
386.26	0.552
386.62	-0.095
386.98	0.487
387.34	0.580
387.70	0.779
388.05	1.269
388.41	1.008
388.77	1.203
389.13	0.925
389.49	1.643
389.85	1.442
390.20	0.903
390.56	1.526
390.92	1.316
391.28	1.592
391.64	1.895
391.99	0.911
392.35	1.679
392.71	1.638
393.07	2.240
393.43	2.301
393.78	2.233
394.14	1.678
394.50	2.401
394.86	2.908
395.22	2.333
395.57	2.833
395.93	2.792
396.29	3.134
396.65	3.431
397.00	3.106
397.36	2.939
397.72	3.387
398.08	3.299
398.43	3.467
398.79	4.038
399.15	3.484
399.51	4.063
399.86	3.654
400.22	4.146
400.58	4.316
400.94	4.210
401.29	4.421
401.65	4.316
402.01	4.677
402.37	4.649
402.72	4.880
403.08	4.903
403.44	4.907
403.79	4.797
404.15	5.348
404.51	5.465
404.86	5.234
405.22	5.584
405.58	5.730
405.94	5.679
406.29	5.878
406.65	5.859
407.01	5.987
407.36	6.082
407.72	5.925
408.08	6.324
408.43	6.451
408.79	6.661
409.15	6.621
409.50	6.653
409.86	6.979
410.22	6.875
410.57	7.008
410.93	7.093
411.29	7.389
411.64	7.430
412.00	7.463
412.35	7.588
412.71	7.454
413.07	7.676
413.42	7.730
413.78	7.956
414.14	8.068
414.49	8.114
414.85	8.362
415.20	8.522
415.56	8.557
415.92	8.610
416.27	8.711
416.63	8.816
416.98	8.904
417.34	9.192
417.70	9.353
418.05	9.190
418.41	9.240
418.76	9.383
419.12	9.535
419.47	9.629
419.83	9.660
420.19	9.779
420.54	9.956
420.90	9.820
421.25	10.015
421.61	10.341
421.96	10.345
422.32	10.561
422.67	10.484
423.03	10.585
423.39	10.484
423.74	10.942
424.10	10.862
424.45	10.955
424.81	11.050
425.16	11.369
425.52	11.278
425.87	11.344
426.23	11.443
426.58	11.621
426.94	11.527
427.29	11.703
427.65	11.958
428.00	11.952
428.36	12.236
428.71	12.056
429.07	12.238
429.42	12.238
429.78	12.518
430.13	12.501
430.49	12.526
430.84	12.887
431.19	12.796
431.55	12.864
431.90	12.896
432.26	12.979
432.61	13.159
432.97	13.315
433.32	13.609
433.68	13.705
434.03	13.400
434.39	13.786
434.74	13.853
435.09	13.906
435.45	13.861
435.80	13.955
436.16	14.194
436.51	14.407
436.86	14.234
437.22	14.390
437.57	14.539
437.93	14.565
438.28	14.634
438.63	14.748
438.99	14.693
439.34	14.824
439.70	14.988
440.05	15.046
440.40	15.044
440.76	15.044
441.11	15.292
441.47	15.337
441.82	15.414
442.17	15.554
442.53	15.610
442.88	15.775
443.23	15.709
443.59	15.767
443.94	16.072
444.29	16.001
444.65	15.952
445.00	16.061
445.35	16.183
445.71	16.152
446.06	16.431
446.41	16.424
446.77	16.572
447.12	16.694
447.47	16.932
447.83	16.717
448.18	16.953
448.53	17.079
448.89	17.004
449.24	16.980
449.59	17.112
449.94	17.185
450.30	17.249
450.65	17.488
451.00	17.485
451.36	17.626
451.71	17.663
452.06	17.764
452.41	17.769
452.77	17.902
453.12	18.003
453.47	18.140
453.82	18.201
454.18	18.349
454.53	18.349
454.88	18.388
455.23	18.557
455.59	18.550
455.94	18.652
456.29	18.743
456.64	18.767
457.00	18.938
457.35	19.010
457.70	19.044
458.05	19.162
458.40	19.232
458.76	19.350
459.11	19.542
459.46	19.462
459.81	19.633
460.16	19.673
460.52	19.764
460.87	19.911
461.22	19.869
461.57	19.974
461.92	20.194
462.28	20.146
462.63	20.126
462.98	20.395
463.33	20.483
463.68	20.549
464.03	20.613
464.38	20.611
464.74	20.662
465.09	20.803
465.44	20.837
465.79	20.856
466.14	21.050
466.49	21.042
466.84	21.077
467.20	21.189
467.55	21.286
467.90	21.311
468.25	21.219
468.60	21.507
468.95	21.559
469.30	21.549
469.65	21.625
470.00	21.706
470.36	21.801
470.71	21.787
471.06	21.869
471.41	21.890
471.76	21.914
472.11	22.041
472.46	22.045
472.81	22.100
473.16	22.088
473.51	22.122
473.86	22.315
474.21	22.208
474.56	22.262
474.91	22.263
475.26	22.272
475.62	22.334
475.97	22.275
476.32	22.364
476.67	22.329
477.02	22.410
477.37	22.399
477.72	22.498
478.07	22.408
478.42	22.522
478.77	22.495
479.12	22.514
479.47	22.480
479.82	22.509
480.17	22.457
480.52	22.508
480.87	22.549
481.22	22.556
481.57	22.524
481.92	22.498
482.27	22.566
482.62	22.517
482.97	22.543
483.32	22.588
483.67	22.609
484.02	22.601
484.36	22.642
484.71	22.600
485.06	22.694
485.41	22.717
485.76	22.816
486.11	22.691
486.46	22.807
486.81	22.829
487.16	22.853
487.51	22.859
487.86	22.954
488.21	23.003
488.56	23.101
488.91	23.037
489.25	23.181
489.60	23.220
489.95	23.285
490.30	23.328
490.65	23.402
491.00	23.484
491.35	23.537
491.70	23.555
492.05	23.653
492.39	23.659
492.74	23.746
493.09	23.793
493.44	23.828
493.79	23.999
494.14	24.049
494.49	24.161
494.83	24.151
495.18	24.213
495.53	24.298
495.88	24.350
496.23	24.410
496.58	24.479
496.92	24.622
497.27	24.625
497.62	24.746
497.97	24.783
498.32	24.886
498.67	24.858
499.01	24.946
499.36	25.018
499.71	25.124
500.06	25.150
500.41	25.160
500.75	25.267
501.10	25.291
501.45	25.366
501.80	25.426
502.14	25.460
502.49	25.525
502.84	25.595
503.19	25.630
503.53	25.656
503.88	25.719
504.23	25.763
504.58	25.831
504.92	25.793
505.27	25.869
505.62	25.886
505.97	25.884
506.31	25.937
506.66	25.967
507.01	25.996
507.36	25.996
507.70	26.029
508.05	26.092
508.40	26.016
508.74	26.016
509.09	25.946
509.44	25.998
509.79	25.927
510.13	25.996
510.48	25.907
510.83	25.874
511.17	25.933
511.52	25.898
511.87	25.895
512.21	25.822
512.56	25.890
512.91	25.878
513.25	25.942
513.60	25.956
513.95	25.939
514.29	25.962
514.64	26.061
514.98	26.077
515.33	26.012
515.68	26.142
516.02	26.154
516.37	26.146
516.72	26.159
517.06	26.190
517.41	26.254
517.75	26.266
518.10	26.253
518.45	26.333
518.79	26.321
519.14	26.361
519.48	26.298
519.83	26.348
520.18	26.365
520.52	26.420
520.87	26.378
521.21	26.457
521.56	26.471
521.90	26.414
522.25	26.427
522.60	26.475
522.94	26.440
523.29	26.481
523.63	26.486
523.98	26.406
524.32	26.402
524.67	26.401
525.01	26.413
525.36	26.336
525.70	26.309
526.05	26.284
526.39	26.283
526.74	26.231
527.08	26.168
527.43	26.074
527.77	26.045
528.12	25.973
528.46	25.936
528.81	25.854
529.15	25.811
529.50	25.714
529.84	25.653
530.19	25.602
530.53	25.511
530.88	25.377
531.22	25.303
531.57	25.219
531.91	25.055
532.26	24.977
532.60	24.884
532.94	24.681
533.29	24.601
533.63	24.412
533.98	24.232
534.32	24.163
534.67	23.970
535.01	23.800
535.35	23.591
535.70	23.445
536.04	23.237
536.39	23.125
536.73	22.927
537.07	22.691
537.42	22.543
537.76	22.350
538.11	22.271
538.45	22.034
538.79	21.831
539.14	21.618
539.48	21.544
539.82	21.347
540.17	21.137
540.51	21.017
540.85	20.879
541.20	20.723
541.54	20.574
541.89	20.421
542.23	20.319
542.57	20.204
542.92	20.160
543.26	19.978
543.60	19.934
543.94	19.878
544.29	19.851
544.63	19.733
544.97	19.725
545.32	19.681
545.66	19.645
546.00	19.671
546.35	19.674
546.69	19.664
547.03	19.646
547.37	19.700
547.72	19.670
548.06	19.773
548.40	19.747
548.75	19.842
549.09	19.915
549.43	19.879
549.77	19.940
550.12	20.020
550.46	20.090
550.80	20.219
551.14	20.278
551.49	20.287
551.83	20.469
552.17	20.574
552.51	20.689
552.85	20.809
553.20	20.852
553.54	21.078
553.88	21.233
554.22	21.365
554.56	21.574
554.91	21.750
555.25	21.868
555.59	22.091
555.93	22.284
556.27	22.466
556.62	22.658
556.96	22.918
557.30	23.034
557.64	23.244
557.98	23.477
558.32	23.682
558.67	23.913
559.01	24.128
559.35	24.335
559.69	24.538
560.03	24.703
560.37	24.900
560.71	25.131
561.05	25.311
561.40	25.485
561.74	25.706
562.08	25.866
562.42	25.996
562.76	26.208
563.10	26.398
563.44	26.535
563.78	26.712
564.12	26.858
564.46	26.946
564.81	27.106
565.15	27.206
565.49	27.326
565.83	27.426
566.17	27.523
566.51	27.569
566.85	27.651
567.19	27.766
567.53	27.843
567.87	27.905
568.21	27.953
568.55	27.926
568.89	28.027
569.23	28.028
569.57	28.102
569.91	28.070
570.25	28.079
570.59	28.078
570.93	28.042
571.27	28.023
571.61	28.040
571.95	27.988
572.29	27.894
572.63	27.840
572.97	27.900
573.31	27.810
573.65	27.646
573.99	27.608
574.33	27.523
574.67	27.466
575.01	27.388
575.35	27.297
575.69	27.219
576.03	27.167
576.37	27.054
576.71	26.943
577.05	26.812
577.39	26.703
577.73	26.561
578.06	26.448
578.40	26.347
578.74	26.209
579.08	26.013
579.42	25.871
579.76	25.776
580.10	25.541
580.44	25.407
580.78	25.243
581.12	25.066
581.45	24.925
581.79	24.747
582.13	24.604
582.47	24.491
582.81	24.273
583.15	24.138
583.49	24.060
583.83	23.870
584.16	23.708
584.50	23.593
584.84	23.533
585.18	23.308
585.52	23.195
585.86	23.101
586.19	22.930
586.53	22.833
586.87	22.695
587.21	22.565
587.55	22.431
587.88	22.299
588.22	22.205
588.56	21.982
588.90	21.832
589.24	21.672
589.57	21.448
589.91	21.300
590.25	21.141
590.59	20.950
590.92	20.798
591.26	20.585
591.60	20.391
591.94	20.228
592.27	19.997
592.61	19.733
592.95	19.587
593.29	19.293
593.62	19.080
593.96	18.826
594.30	18.536
594.64	18.318
594.97	17.986
595.31	17.644
595.65	17.374
595.98	17.055
596.32	16.698
596.66	16.346
597.00	15.962
597.33	15.632
597.67	15.216
598.01	14.833
598.34	14.441
598.68	14.095
599.02	13.695
599.35	13.291
599.69	13.011
600.03	12.679
600.36	12.327
600.70	12.054
601.03	11.764
601.37	11.498
601.71	11.236
602.04	10.995
602.38	10.733
602.72	10.569
603.05	10.332
603.39	10.070
603.72	9.841
604.06	9.639
604.40	9.455
604.73	9.149
605.07	8.954
605.40	8.732
605.74	8.488
606.08	8.265
606.41	7.998
606.75	7.789
607.08	7.559
607.42	7.295
607.75	7.090
608.09	6.851
608.42	6.589
608.76	6.381
609.10	6.141
609.43	5.945
609.77	5.697
610.10	5.475
610.44	5.273
610.77	5.012
611.11	4.862
611.44	4.620
611.78	4.456
612.11	4.239
612.45	4.067
612.78	3.858
613.12	3.706
613.45	3.486
613.79	3.349
614.12	3.197
614.46	3.035
614.79	2.919
615.13	2.754
615.46	2.643
615.79	2.501
616.13	2.399
616.46	2.287
616.80	2.178
617.13	2.089
617.47	2.002
617.80	1.905
618.13	1.856
618.47	1.774
618.80	1.725
619.14	1.644
619.47	1.581
619.81	1.547
620.14	1.476
620.47	1.453
620.81	1.396
621.14	1.373
621.47	1.308
621.81	1.279
622.14	1.248
622.48	1.199
622.81	1.149
623.14	1.145
623.48	1.117
623.81	1.073
624.14	1.036
624.48	1.042
624.81	0.991
625.14	0.985
625.48	0.981
625.81	0.970
626.14	0.968
626.48	0.936
626.81	0.956
627.14	0.969
627.48	0.961
627.81	0.968
628.14	0.997
628.47	1.015
628.81	1.006
629.14	1.040
629.47	1.058
629.81	1.100
630.14	1.122
630.47	1.179
630.80	1.209
631.14	1.231
631.47	1.280
631.80	1.384
632.13	1.447
632.47	1.508
632.80	1.590
