SpectraSuite Data File
++++++++++++++++++++++++++++++++++++
Date: Tue Jun 16 11:33:36 BST 2015
User: mpfc3
Dark Spectrum Present: No
Reference Spectrum Present: No
Number of Sampled Component Spectra: 1
Spectrometers: USB2E3636
Integration Time (usec): 30000 (USB2E3636)
Spectra Averaged: 1 (USB2E3636)
Boxcar Smoothing: 0 (USB2E3636)
Correct for Electrical Dark: No (USB2E3636)
Strobe/Lamp Enabled: No (USB2E3636)
Correct for Detector Non-linearity: No (USB2E3636)
Correct for Stray Light: No (USB2E3636)
Number of Pixels in Processed Spectrum: 2048
>>>>>Begin Processed Spectral Data<<<<<
180.28	0.00
180.65	150.00
181.02	151.00
181.39	158.00
181.77	151.00
182.14	154.00
182.51	152.00
182.88	157.00
183.25	160.00
183.63	161.00
184.00	155.00
184.37	162.00
184.74	158.00
185.11	157.00
185.49	160.00
185.86	153.00
186.23	156.00
186.60	156.00
186.97	156.00
187.35	159.00
187.72	155.00
188.09	153.00
188.46	154.00
188.83	164.00
189.20	155.00
189.58	161.00
189.95	159.00
190.32	159.00
190.69	155.00
191.06	159.00
191.43	163.00
191.81	159.00
192.18	161.00
192.55	162.00
192.92	157.00
193.29	156.00
193.66	161.00
194.03	156.00
194.41	159.00
194.78	165.00
195.15	162.00
195.52	159.00
195.89	156.00
196.26	161.00
196.63	156.00
197.01	166.00
197.38	159.00
197.75	161.00
198.12	160.00
198.49	165.00
198.86	161.00
199.23	160.00
199.60	159.00
199.98	161.00
200.35	159.00
200.72	163.00
201.09	156.00
201.46	163.00
201.83	156.00
202.20	159.00
202.57	159.00
202.94	164.00
203.31	162.00
203.69	158.00
204.06	164.00
204.43	157.00
204.80	163.00
205.17	161.00
205.54	161.00
205.91	160.00
206.28	164.00
206.65	163.00
207.02	164.00
207.39	155.00
207.76	155.00
208.14	161.00
208.51	159.00
208.88	163.00
209.25	158.00
209.62	158.00
209.99	161.00
210.36	162.00
210.73	161.00
211.10	165.00
211.47	160.00
211.84	160.00
212.21	164.00
212.58	163.00
212.95	159.00
213.32	163.00
213.69	158.00
214.06	164.00
214.43	164.00
214.80	164.00
215.17	159.00
215.55	165.00
215.92	161.00
216.29	161.00
216.66	160.00
217.03	167.00
217.40	164.00
217.77	161.00
218.14	165.00
218.51	157.00
218.88	159.00
219.25	158.00
219.62	165.00
219.99	162.00
220.36	163.00
220.73	167.00
221.10	162.00
221.47	162.00
221.84	161.00
222.21	162.00
222.58	164.00
222.95	158.00
223.32	161.00
223.69	159.00
224.06	161.00
224.43	163.00
224.80	159.00
225.17	162.00
225.54	162.00
225.91	163.00
226.27	169.00
226.64	162.00
227.01	165.00
227.38	167.00
227.75	158.00
228.12	159.00
228.49	159.00
228.86	166.00
229.23	166.00
229.60	160.00
229.97	162.00
230.34	160.00
230.71	166.00
231.08	159.00
231.45	160.00
231.82	166.00
232.19	167.00
232.56	167.00
232.93	164.00
233.30	162.00
233.66	161.00
234.03	158.00
234.40	163.00
234.77	157.00
235.14	160.00
235.51	162.00
235.88	164.00
236.25	160.00
236.62	162.00
236.99	161.00
237.36	166.00
237.73	160.00
238.09	164.00
238.46	165.00
238.83	160.00
239.20	161.00
239.57	163.00
239.94	160.00
240.31	160.00
240.68	159.00
241.05	160.00
241.41	163.00
241.78	162.00
242.15	161.00
242.52	161.00
242.89	165.00
243.26	165.00
243.63	162.00
244.00	161.00
244.36	160.00
244.73	162.00
245.10	162.00
245.47	161.00
245.84	164.00
246.21	158.00
246.58	167.00
246.94	166.00
247.31	160.00
247.68	163.00
248.05	157.00
248.42	162.00
248.79	168.00
249.15	157.00
249.52	160.00
249.89	162.00
250.26	161.00
250.63	159.00
251.00	162.00
251.36	159.00
251.73	165.00
252.10	160.00
252.47	160.00
252.84	166.00
253.20	164.00
253.57	165.00
253.94	163.00
254.31	161.00
254.68	162.00
255.05	158.00
255.41	168.00
255.78	161.00
256.15	159.00
256.52	168.00
256.88	162.00
257.25	161.00
257.62	167.00
257.99	167.00
258.36	161.00
258.72	162.00
259.09	164.00
259.46	171.00
259.83	164.00
260.19	157.00
260.56	166.00
260.93	165.00
261.30	163.00
261.67	159.00
262.03	160.00
262.40	160.00
262.77	159.00
263.14	163.00
263.50	161.00
263.87	161.00
264.24	167.00
264.61	162.00
264.97	163.00
265.34	160.00
265.71	161.00
266.07	160.00
266.44	161.00
266.81	161.00
267.18	166.00
267.54	165.00
267.91	164.00
268.28	163.00
268.64	162.00
269.01	159.00
269.38	160.00
269.75	166.00
270.11	164.00
270.48	160.00
270.85	162.00
271.21	160.00
271.58	162.00
271.95	164.00
272.32	163.00
272.68	164.00
273.05	161.00
273.42	163.00
273.78	165.00
274.15	163.00
274.52	162.00
274.88	164.00
275.25	157.00
275.62	168.00
275.98	161.00
276.35	157.00
276.72	160.00
277.08	163.00
277.45	162.00
277.82	162.00
278.18	167.00
278.55	159.00
278.92	160.00
279.28	162.00
279.65	163.00
280.01	161.00
280.38	166.00
280.75	165.00
281.11	163.00
281.48	165.00
281.85	166.00
282.21	166.00
282.58	161.00
282.95	163.00
283.31	160.00
283.68	162.00
284.04	160.00
284.41	167.00
284.78	167.00
285.14	169.00
285.51	162.00
285.87	163.00
286.24	163.00
286.61	160.00
286.97	164.00
287.34	161.00
287.70	162.00
288.07	164.00
288.44	162.00
288.80	161.00
289.17	165.00
289.53	166.00
289.90	159.00
290.26	163.00
290.63	166.00
291.00	161.00
291.36	162.00
291.73	162.00
292.09	159.00
292.46	162.00
292.82	164.00
293.19	162.00
293.56	159.00
293.92	160.00
294.29	167.00
294.65	167.00
295.02	161.00
295.38	167.00
295.75	160.00
296.11	163.00
296.48	162.00
296.84	165.00
297.21	165.00
297.57	163.00
297.94	158.00
298.30	163.00
298.67	161.00
299.04	162.00
299.40	162.00
299.77	163.00
300.13	159.00
300.50	164.00
300.86	160.00
301.23	161.00
301.59	161.00
301.96	166.00
302.32	165.00
302.69	162.00
303.05	165.00
303.42	167.00
303.78	171.00
304.14	163.00
304.51	163.00
304.87	166.00
305.24	163.00
305.60	159.00
305.97	160.00
306.33	165.00
306.70	166.00
307.06	168.00
307.43	163.00
307.79	162.00
308.16	160.00
308.52	160.00
308.88	161.00
309.25	163.00
309.61	162.00
309.98	161.00
310.34	164.00
310.71	164.00
311.07	163.00
311.44	165.00
311.80	164.00
312.16	160.00
312.53	158.00
312.89	164.00
313.26	163.00
313.62	165.00
313.98	166.00
314.35	159.00
314.71	160.00
315.08	164.00
315.44	169.00
315.80	164.00
316.17	163.00
316.53	165.00
316.90	164.00
317.26	165.00
317.62	161.00
317.99	157.00
318.35	166.00
318.72	160.00
319.08	163.00
319.44	160.00
319.81	162.00
320.17	165.00
320.53	159.00
320.90	166.00
321.26	160.00
321.62	162.00
321.99	165.00
322.35	163.00
322.72	166.00
323.08	163.00
323.44	167.00
323.81	168.00
324.17	161.00
324.53	163.00
324.90	165.00
325.26	163.00
325.62	165.00
325.99	162.00
326.35	165.00
326.71	164.00
327.08	161.00
327.44	167.00
327.80	165.00
328.16	165.00
328.53	165.00
328.89	163.00
329.25	162.00
329.62	166.00
329.98	159.00
330.34	162.00
330.71	163.00
331.07	163.00
331.43	168.00
331.79	161.00
332.16	167.00
332.52	162.00
332.88	160.00
333.24	168.00
333.61	162.00
333.97	160.00
334.33	162.00
334.70	165.00
335.06	163.00
335.42	160.00
335.78	166.00
336.15	161.00
336.51	164.00
336.87	165.00
337.23	164.00
337.60	168.00
337.96	160.00
338.32	158.00
338.68	160.00
339.04	164.00
339.41	165.00
339.77	165.00
340.13	169.00
340.49	165.00
340.86	163.00
341.22	164.00
341.58	163.00
341.94	164.00
342.30	166.00
342.67	164.00
343.03	163.00
343.39	163.00
343.75	166.00
344.11	160.00
344.48	164.00
344.84	166.00
345.20	165.00
345.56	168.00
345.92	161.00
346.28	161.00
346.65	157.00
347.01	162.00
347.37	160.00
347.73	166.00
348.09	161.00
348.45	162.00
348.82	164.00
349.18	164.00
349.54	164.00
349.90	160.00
350.26	163.00
350.62	163.00
350.98	166.00
351.35	166.00
351.71	164.00
352.07	166.00
352.43	166.00
352.79	164.00
353.15	164.00
353.51	165.00
353.87	159.00
354.24	165.00
354.60	159.00
354.96	164.00
355.32	164.00
355.68	162.00
356.04	165.00
356.40	168.00
356.76	167.00
357.12	165.00
357.48	165.00
357.85	163.00
358.21	160.00
358.57	163.00
358.93	161.00
359.29	168.00
359.65	160.00
360.01	165.00
360.37	170.00
360.73	156.00
361.09	164.00
361.45	161.00
361.81	163.00
362.17	163.00
362.53	164.00
362.89	158.00
363.25	162.00
363.62	164.00
363.98	167.00
364.34	168.00
364.70	162.00
365.06	163.00
365.42	160.00
365.78	161.00
366.14	166.00
366.50	162.00
366.86	163.00
367.22	163.00
367.58	159.00
367.94	161.00
368.30	163.00
368.66	166.00
369.02	161.00
369.38	163.00
369.74	165.00
370.10	165.00
370.46	167.00
370.82	161.00
371.18	163.00
371.54	162.00
371.90	163.00
372.26	161.00
372.62	163.00
372.98	169.00
373.33	167.00
373.69	163.00
374.05	160.00
374.41	163.00
374.77	163.00
375.13	163.00
375.49	165.00
375.85	165.00
376.21	162.00
376.57	158.00
376.93	165.00
377.29	162.00
377.65	168.00
378.01	160.00
378.37	165.00
378.73	163.00
379.08	167.00
379.44	165.00
379.80	161.00
380.16	169.00
380.52	169.00
380.88	166.00
381.24	165.00
381.60	159.00
381.96	165.00
382.32	163.00
382.67	168.00
383.03	167.00
383.39	165.00
383.75	163.00
384.11	165.00
384.47	167.00
384.83	168.00
385.19	165.00
385.54	166.00
385.90	171.00
386.26	166.00
386.62	164.00
386.98	167.00
387.34	172.00
387.70	169.00
388.05	166.00
388.41	169.00
388.77	165.00
389.13	167.00
389.49	166.00
389.85	173.00
390.20	166.00
390.56	168.00
390.92	171.00
391.28	163.00
391.64	172.00
391.99	170.00
392.35	169.00
392.71	171.00
393.07	173.00
393.43	168.00
393.78	173.00
394.14	172.00
394.50	171.00
394.86	169.00
395.22	174.00
395.57	170.00
395.93	177.00
396.29	171.00
396.65	171.00
397.00	174.00
397.36	172.00
397.72	175.00
398.08	172.00
398.43	178.00
398.79	181.00
399.15	172.00
399.51	177.00
399.86	173.00
400.22	178.00
400.58	173.00
400.94	177.00
401.29	178.00
401.65	176.00
402.01	175.00
402.37	175.00
402.72	178.00
403.08	183.00
403.44	183.00
403.79	180.00
404.15	188.00
404.51	184.00
404.86	183.00
405.22	184.00
405.58	184.00
405.94	182.00
406.29	184.00
406.65	184.00
407.01	185.00
407.36	183.00
407.72	187.00
408.08	180.00
408.43	185.00
408.79	188.00
409.15	189.00
409.50	182.00
409.86	190.00
410.22	186.00
410.57	191.00
410.93	189.00
411.29	190.00
411.64	192.00
412.00	192.00
412.35	195.00
412.71	196.00
413.07	192.00
413.42	191.00
413.78	198.00
414.14	194.00
414.49	202.00
414.85	201.00
415.20	202.00
415.56	192.00
415.92	198.00
416.27	202.00
416.63	200.00
416.98	200.00
417.34	202.00
417.70	200.00
418.05	201.00
418.41	206.00
418.76	210.00
419.12	202.00
419.47	207.00
419.83	204.00
420.19	208.00
420.54	210.00
420.90	208.00
421.25	213.00
421.61	211.00
421.96	215.00
422.32	217.00
422.67	219.00
423.03	216.00
423.39	217.00
423.74	216.00
424.10	220.00
424.45	218.00
424.81	217.00
425.16	221.00
425.52	217.00
425.87	227.00
426.23	225.00
426.58	224.00
426.94	231.00
427.29	227.00
427.65	229.00
428.00	221.00
428.36	227.00
428.71	228.00
429.07	230.00
429.42	226.00
429.78	228.00
430.13	234.00
430.49	238.00
430.84	240.00
431.19	235.00
431.55	235.00
431.90	240.00
432.26	242.00
432.61	240.00
432.97	238.00
433.32	243.00
433.68	247.00
434.03	249.00
434.39	252.00
434.74	250.00
435.09	249.00
435.45	252.00
435.80	252.00
436.16	255.00
436.51	257.00
436.86	253.00
437.22	253.00
437.57	263.00
437.93	257.00
438.28	265.00
438.63	262.00
438.99	263.00
439.34	268.00
439.70	266.00
440.05	270.00
440.40	272.00
440.76	276.00
441.11	272.00
441.47	281.00
441.82	277.00
442.17	280.00
442.53	278.00
442.88	276.00
443.23	289.00
443.59	283.00
443.94	285.00
444.29	286.00
444.65	285.00
445.00	293.00
445.35	286.00
445.71	286.00
446.06	298.00
446.41	293.00
446.77	283.00
447.12	301.00
447.47	297.00
447.83	305.00
448.18	306.00
448.53	300.00
448.89	307.00
449.24	304.00
449.59	312.00
449.94	304.00
450.30	311.00
450.65	314.00
451.00	321.00
451.36	324.00
451.71	323.00
452.06	323.00
452.41	322.00
452.77	321.00
453.12	330.00
453.47	334.00
453.82	335.00
454.18	326.00
454.53	329.00
454.88	334.00
455.23	334.00
455.59	329.00
455.94	341.00
456.29	345.00
456.64	340.00
457.00	337.00
457.35	350.00
457.70	347.00
458.05	352.00
458.40	349.00
458.76	361.00
459.11	359.00
459.46	361.00
459.81	362.00
460.16	359.00
460.52	376.00
460.87	377.00
461.22	379.00
461.57	367.00
461.92	377.00
462.28	383.00
462.63	384.00
462.98	386.00
463.33	395.00
463.68	406.00
464.03	393.00
464.38	399.00
464.74	398.00
465.09	411.00
465.44	411.00
465.79	412.00
466.14	411.00
466.49	411.00
466.84	418.00
467.20	429.00
467.55	436.00
467.90	435.00
468.25	436.00
468.60	439.00
468.95	442.00
469.30	450.00
469.65	451.00
470.00	456.00
470.36	458.00
470.71	468.00
471.06	471.00
471.41	468.00
471.76	472.00
472.11	480.00
472.46	493.00
472.81	495.00
473.16	498.00
473.51	494.00
473.86	512.00
474.21	515.00
474.56	530.00
474.91	533.00
475.26	522.00
475.62	533.00
475.97	545.00
476.32	543.00
476.67	553.00
477.02	553.00
477.37	563.00
477.72	574.00
478.07	571.00
478.42	591.00
478.77	585.00
479.12	598.00
479.47	596.00
479.82	597.00
480.17	610.00
480.52	619.00
480.87	632.00
481.22	619.00
481.57	631.00
481.92	635.00
482.27	626.00
482.62	652.00
482.97	665.00
483.32	661.00
483.67	652.00
484.02	668.00
484.36	675.00
484.71	683.00
485.06	688.00
485.41	680.00
485.76	699.00
486.11	692.00
486.46	711.00
486.81	718.00
487.16	729.00
487.51	718.00
487.86	742.00
488.21	747.00
488.56	751.00
488.91	746.00
489.25	756.00
489.60	761.00
489.95	769.00
490.30	773.00
490.65	778.00
491.00	796.00
491.35	797.00
491.70	787.00
492.05	809.00
492.39	811.00
492.74	807.00
493.09	832.00
493.44	821.00
493.79	829.00
494.14	837.00
494.49	842.00
494.83	840.00
495.18	847.00
495.53	862.00
495.88	872.00
496.23	887.00
496.58	875.00
496.92	898.00
497.27	913.00
497.62	903.00
497.97	884.00
498.32	912.00
498.67	915.00
499.01	940.00
499.36	928.00
499.71	944.00
500.06	939.00
500.41	952.00
500.75	974.00
501.10	968.00
501.45	974.00
501.80	984.00
502.14	997.00
502.49	966.00
502.84	997.00
503.19	1016.00
503.53	1010.00
503.88	1009.00
504.23	1026.00
504.58	1017.00
504.92	1027.00
505.27	1042.00
505.62	1030.00
505.97	1039.00
506.31	1046.00
506.66	1057.00
507.01	1071.00
507.36	1072.00
507.70	1078.00
508.05	1076.00
508.40	1073.00
508.74	1072.00
509.09	1068.00
509.44	1068.00
509.79	1070.00
510.13	1099.00
510.48	1085.00
510.83	1102.00
511.17	1088.00
511.52	1091.00
511.87	1092.00
512.21	1094.00
512.56	1083.00
512.91	1093.00
513.25	1123.00
513.60	1097.00
513.95	1103.00
514.29	1098.00
514.64	1131.00
514.98	1122.00
515.33	1101.00
515.68	1125.00
516.02	1129.00
516.37	1130.00
516.72	1122.00
517.06	1132.00
517.41	1143.00
517.75	1123.00
518.10	1138.00
518.45	1131.00
518.79	1124.00
519.14	1139.00
519.48	1144.00
519.83	1119.00
520.18	1145.00
520.52	1146.00
520.87	1155.00
521.21	1144.00
521.56	1147.00
521.90	1139.00
522.25	1147.00
522.60	1143.00
522.94	1144.00
523.29	1158.00
523.63	1152.00
523.98	1138.00
524.32	1147.00
524.67	1142.00
525.01	1147.00
525.36	1147.00
525.70	1137.00
526.05	1145.00
526.39	1128.00
526.74	1142.00
527.08	1142.00
527.43	1123.00
527.77	1120.00
528.12	1113.00
528.46	1117.00
528.81	1122.00
529.15	1132.00
529.50	1141.00
529.84	1120.00
530.19	1117.00
530.53	1115.00
530.88	1108.00
531.22	1107.00
531.57	1111.00
531.91	1106.00
532.26	1092.00
532.60	1097.00
532.94	1093.00
533.29	1098.00
533.63	1082.00
533.98	1080.00
534.32	1078.00
534.67	1062.00
535.01	1072.00
535.35	1065.00
535.70	1040.00
536.04	1037.00
536.39	1029.00
536.73	1029.00
537.07	1020.00
537.42	1019.00
537.76	1016.00
538.11	1013.00
538.45	1000.00
538.79	987.00
539.14	995.00
539.48	968.00
539.82	973.00
540.17	970.00
540.51	946.00
540.85	952.00
541.20	958.00
541.54	937.00
541.89	946.00
542.23	945.00
542.57	942.00
542.92	941.00
543.26	946.00
543.60	925.00
543.94	937.00
544.29	925.00
544.63	925.00
544.97	916.00
545.32	923.00
545.66	929.00
546.00	924.00
546.35	919.00
546.69	932.00
547.03	927.00
547.37	929.00
547.72	933.00
548.06	925.00
548.40	926.00
548.75	945.00
549.09	945.00
549.43	958.00
549.77	952.00
550.12	956.00
550.46	963.00
550.80	966.00
551.14	985.00
551.49	977.00
551.83	981.00
552.17	981.00
552.51	1013.00
552.85	999.00
553.20	1004.00
553.54	1034.00
553.88	1040.00
554.22	1019.00
554.56	1058.00
554.91	1055.00
555.25	1047.00
555.59	1070.00
555.93	1079.00
556.27	1084.00
556.62	1091.00
556.96	1113.00
557.30	1123.00
557.64	1117.00
557.98	1113.00
558.32	1126.00
558.67	1161.00
559.01	1157.00
559.35	1175.00
559.69	1175.00
560.03	1181.00
560.37	1209.00
560.71	1207.00
561.05	1221.00
561.40	1231.00
561.74	1235.00
562.08	1231.00
562.42	1243.00
562.76	1253.00
563.10	1261.00
563.44	1273.00
563.78	1283.00
564.12	1292.00
564.46	1267.00
564.81	1285.00
565.15	1313.00
565.49	1299.00
565.83	1305.00
566.17	1310.00
566.51	1313.00
566.85	1322.00
567.19	1315.00
567.53	1326.00
567.87	1331.00
568.21	1311.00
568.55	1336.00
568.89	1336.00
569.23	1334.00
569.57	1338.00
569.91	1320.00
570.25	1321.00
570.59	1335.00
570.93	1325.00
571.27	1324.00
571.61	1315.00
571.95	1328.00
572.29	1340.00
572.63	1325.00
572.97	1318.00
573.31	1301.00
573.65	1320.00
573.99	1291.00
574.33	1312.00
574.67	1297.00
575.01	1288.00
575.35	1296.00
575.69	1274.00
576.03	1285.00
576.37	1286.00
576.71	1265.00
577.05	1261.00
577.39	1236.00
577.73	1262.00
578.06	1244.00
578.40	1251.00
578.74	1238.00
579.08	1237.00
579.42	1219.00
579.76	1215.00
580.10	1213.00
580.44	1209.00
580.78	1182.00
581.12	1188.00
581.45	1191.00
581.79	1180.00
582.13	1168.00
582.47	1163.00
582.81	1152.00
583.15	1149.00
583.49	1160.00
583.83	1141.00
584.16	1139.00
584.50	1152.00
584.84	1135.00
585.18	1116.00
585.52	1111.00
585.86	1122.00
586.19	1112.00
586.53	1108.00
586.87	1081.00
587.21	1087.00
587.55	1094.00
587.88	1080.00
588.22	1068.00
588.56	1080.00
588.90	1058.00
589.24	1063.00
589.57	1064.00
589.91	1053.00
590.25	1021.00
590.59	1037.00
590.92	1029.00
591.26	1007.00
591.60	999.00
591.94	994.00
592.27	995.00
592.61	966.00
592.95	989.00
593.29	980.00
593.62	952.00
593.96	933.00
594.30	944.00
594.64	938.00
594.97	915.00
595.31	901.00
595.65	883.00
595.98	880.00
596.32	864.00
596.66	858.00
597.00	848.00
597.33	810.00
597.67	805.00
598.01	791.00
598.34	784.00
598.68	775.00
599.02	747.00
599.35	732.00
599.69	718.00
600.03	708.00
600.36	696.00
600.70	676.00
601.03	674.00
601.37	643.00
601.71	638.00
602.04	635.00
602.38	628.00
602.72	608.00
603.05	609.00
603.39	576.00
603.72	585.00
604.06	576.00
604.40	552.00
604.73	546.00
605.07	539.00
605.40	526.00
605.74	522.00
606.08	510.00
606.41	487.00
606.75	483.00
607.08	470.00
607.42	457.00
607.75	458.00
608.09	448.00
608.42	434.00
608.76	419.00
609.10	416.00
609.43	405.00
609.77	382.00
610.10	377.00
610.44	369.00
610.77	354.00
611.11	349.00
611.44	338.00
611.78	335.00
612.11	328.00
612.45	315.00
612.78	306.00
613.12	303.00
613.45	292.00
613.79	285.00
614.12	281.00
614.46	277.00
614.79	273.00
615.13	261.00
615.46	252.00
615.79	257.00
616.13	249.00
616.46	243.00
616.80	251.00
617.13	237.00
617.47	232.00
617.80	225.00
618.13	226.00
618.47	228.00
618.80	222.00
619.14	218.00
619.47	220.00
619.81	214.00
620.14	219.00
620.47	210.00
620.81	218.00
621.14	212.00
621.47	206.00
621.81	203.00
622.14	210.00
622.48	206.00
622.81	201.00
623.14	202.00
623.48	196.00
623.81	203.00
624.14	202.00
624.48	200.00
624.81	195.00
625.14	192.00
625.48	193.00
625.81	201.00
626.14	196.00
626.48	193.00
626.81	194.00
627.14	202.00
627.48	193.00
627.81	199.00
628.14	200.00
628.47	197.00
628.81	202.00
629.14	197.00
629.47	204.00
629.81	203.00
630.14	209.00
630.47	204.00
630.80	213.00
631.14	209.00
631.47	219.00
631.80	216.00
632.13	212.00
632.47	220.00
632.80	221.00
633.13	229.00
633.46	229.00
