SpectraSuite Data File
++++++++++++++++++++++++++++++++++++
Date: Tue Jun 16 11:30:06 BST 2015
User: mpfc3
Dark Spectrum Present: No
Reference Spectrum Present: No
Number of Sampled Component Spectra: 1
Spectrometers: USB2E3636
Integration Time (usec): 30000 (USB2E3636)
Spectra Averaged: 1 (USB2E3636)
Boxcar Smoothing: 0 (USB2E3636)
Correct for Electrical Dark: No (USB2E3636)
Strobe/Lamp Enabled: No (USB2E3636)
Correct for Detector Non-linearity: No (USB2E3636)
Correct for Stray Light: No (USB2E3636)
Number of Pixels in Processed Spectrum: 2048
>>>>>Begin Processed Spectral Data<<<<<
180.28	0.00
180.65	147.00
181.02	153.00
181.39	153.00
181.77	151.00
182.14	157.00
182.51	154.00
182.88	155.00
183.25	158.00
183.63	160.00
184.00	159.00
184.37	162.00
184.74	160.00
185.11	157.00
185.49	153.00
185.86	158.00
186.23	155.00
186.60	160.00
186.97	158.00
187.35	158.00
187.72	158.00
188.09	154.00
188.46	156.00
188.83	156.00
189.20	159.00
189.58	157.00
189.95	162.00
190.32	162.00
190.69	157.00
191.06	159.00
191.43	158.00
191.81	159.00
192.18	157.00
192.55	160.00
192.92	160.00
193.29	162.00
193.66	158.00
194.03	160.00
194.41	161.00
194.78	165.00
195.15	159.00
195.52	158.00
195.89	159.00
196.26	158.00
196.63	159.00
197.01	154.00
197.38	160.00
197.75	157.00
198.12	164.00
198.49	162.00
198.86	158.00
199.23	156.00
199.60	161.00
199.98	163.00
200.35	159.00
200.72	158.00
201.09	167.00
201.46	160.00
201.83	161.00
202.20	161.00
202.57	159.00
202.94	161.00
203.31	160.00
203.69	162.00
204.06	160.00
204.43	162.00
204.80	162.00
205.17	165.00
205.54	163.00
205.91	161.00
206.28	165.00
206.65	158.00
207.02	157.00
207.39	161.00
207.76	159.00
208.14	163.00
208.51	154.00
208.88	163.00
209.25	157.00
209.62	155.00
209.99	159.00
210.36	160.00
210.73	160.00
211.10	160.00
211.47	167.00
211.84	162.00
212.21	161.00
212.58	161.00
212.95	160.00
213.32	160.00
213.69	161.00
214.06	167.00
214.43	164.00
214.80	160.00
215.17	156.00
215.55	158.00
215.92	161.00
216.29	160.00
216.66	163.00
217.03	161.00
217.40	164.00
217.77	164.00
218.14	163.00
218.51	161.00
218.88	163.00
219.25	158.00
219.62	163.00
219.99	159.00
220.36	160.00
220.73	164.00
221.10	159.00
221.47	161.00
221.84	165.00
222.21	163.00
222.58	162.00
222.95	164.00
223.32	163.00
223.69	157.00
224.06	161.00
224.43	167.00
224.80	161.00
225.17	166.00
225.54	167.00
225.91	162.00
226.27	170.00
226.64	163.00
227.01	164.00
227.38	162.00
227.75	162.00
228.12	165.00
228.49	163.00
228.86	158.00
229.23	161.00
229.60	161.00
229.97	162.00
230.34	166.00
230.71	161.00
231.08	160.00
231.45	163.00
231.82	162.00
232.19	158.00
232.56	166.00
232.93	168.00
233.30	163.00
233.66	160.00
234.03	160.00
234.40	165.00
234.77	161.00
235.14	163.00
235.51	162.00
235.88	162.00
236.25	160.00
236.62	162.00
236.99	162.00
237.36	166.00
237.73	158.00
238.09	159.00
238.46	163.00
238.83	164.00
239.20	163.00
239.57	162.00
239.94	162.00
240.31	160.00
240.68	162.00
241.05	161.00
241.41	162.00
241.78	161.00
242.15	160.00
242.52	164.00
242.89	164.00
243.26	166.00
243.63	162.00
244.00	159.00
244.36	163.00
244.73	161.00
245.10	166.00
245.47	161.00
245.84	160.00
246.21	162.00
246.58	158.00
246.94	164.00
247.31	163.00
247.68	162.00
248.05	165.00
248.42	164.00
248.79	163.00
249.15	160.00
249.52	159.00
249.89	162.00
250.26	163.00
250.63	162.00
251.00	165.00
251.36	161.00
251.73	157.00
252.10	162.00
252.47	165.00
252.84	157.00
253.20	164.00
253.57	160.00
253.94	159.00
254.31	162.00
254.68	159.00
255.05	163.00
255.41	166.00
255.78	157.00
256.15	165.00
256.52	164.00
256.88	164.00
257.25	162.00
257.62	163.00
257.99	164.00
258.36	161.00
258.72	161.00
259.09	165.00
259.46	163.00
259.83	161.00
260.19	158.00
260.56	158.00
260.93	165.00
261.30	163.00
261.67	162.00
262.03	165.00
262.40	164.00
262.77	163.00
263.14	160.00
263.50	159.00
263.87	164.00
264.24	164.00
264.61	164.00
264.97	163.00
265.34	158.00
265.71	159.00
266.07	162.00
266.44	162.00
266.81	158.00
267.18	161.00
267.54	165.00
267.91	165.00
268.28	162.00
268.64	162.00
269.01	166.00
269.38	162.00
269.75	165.00
270.11	159.00
270.48	163.00
270.85	160.00
271.21	166.00
271.58	163.00
271.95	163.00
272.32	159.00
272.68	164.00
273.05	163.00
273.42	163.00
273.78	162.00
274.15	161.00
274.52	165.00
274.88	164.00
275.25	159.00
275.62	154.00
275.98	164.00
276.35	162.00
276.72	162.00
277.08	158.00
277.45	165.00
277.82	164.00
278.18	159.00
278.55	164.00
278.92	166.00
279.28	166.00
279.65	160.00
280.01	161.00
280.38	159.00
280.75	160.00
281.11	164.00
281.48	161.00
281.85	161.00
282.21	159.00
282.58	162.00
282.95	161.00
283.31	162.00
283.68	163.00
284.04	161.00
284.41	162.00
284.78	163.00
285.14	162.00
285.51	165.00
285.87	162.00
286.24	161.00
286.61	163.00
286.97	165.00
287.34	159.00
287.70	163.00
288.07	166.00
288.44	157.00
288.80	158.00
289.17	164.00
289.53	160.00
289.90	166.00
290.26	161.00
290.63	163.00
291.00	164.00
291.36	163.00
291.73	167.00
292.09	164.00
292.46	162.00
292.82	163.00
293.19	162.00
293.56	160.00
293.92	162.00
294.29	164.00
294.65	161.00
295.02	158.00
295.38	160.00
295.75	161.00
296.11	162.00
296.48	164.00
296.84	162.00
297.21	165.00
297.57	164.00
297.94	162.00
298.30	160.00
298.67	164.00
299.04	161.00
299.40	163.00
299.77	162.00
300.13	161.00
300.50	156.00
300.86	166.00
301.23	160.00
301.59	162.00
301.96	168.00
302.32	168.00
302.69	162.00
303.05	162.00
303.42	163.00
303.78	171.00
304.14	161.00
304.51	162.00
304.87	163.00
305.24	161.00
305.60	158.00
305.97	166.00
306.33	165.00
306.70	162.00
307.06	162.00
307.43	163.00
307.79	161.00
308.16	159.00
308.52	164.00
308.88	159.00
309.25	167.00
309.61	164.00
309.98	159.00
310.34	157.00
310.71	163.00
311.07	165.00
311.44	161.00
311.80	158.00
312.16	164.00
312.53	166.00
312.89	163.00
313.26	163.00
313.62	162.00
313.98	164.00
314.35	163.00
314.71	164.00
315.08	166.00
315.44	166.00
315.80	170.00
316.17	159.00
316.53	166.00
316.90	161.00
317.26	160.00
317.62	163.00
317.99	163.00
318.35	163.00
318.72	161.00
319.08	160.00
319.44	163.00
319.81	168.00
320.17	165.00
320.53	162.00
320.90	163.00
321.26	162.00
321.62	165.00
321.99	168.00
322.35	166.00
322.72	159.00
323.08	163.00
323.44	160.00
323.81	167.00
324.17	162.00
324.53	166.00
324.90	157.00
325.26	158.00
325.62	165.00
325.99	160.00
326.35	159.00
326.71	160.00
327.08	168.00
327.44	164.00
327.80	169.00
328.16	164.00
328.53	162.00
328.89	158.00
329.25	161.00
329.62	161.00
329.98	166.00
330.34	166.00
330.71	159.00
331.07	164.00
331.43	157.00
331.79	160.00
332.16	158.00
332.52	165.00
332.88	164.00
333.24	164.00
333.61	160.00
333.97	160.00
334.33	158.00
334.70	162.00
335.06	161.00
335.42	162.00
335.78	163.00
336.15	162.00
336.51	159.00
336.87	162.00
337.23	168.00
337.60	166.00
337.96	164.00
338.32	159.00
338.68	161.00
339.04	164.00
339.41	165.00
339.77	162.00
340.13	162.00
340.49	161.00
340.86	164.00
341.22	164.00
341.58	164.00
341.94	159.00
342.30	163.00
342.67	162.00
343.03	162.00
343.39	164.00
343.75	166.00
344.11	165.00
344.48	162.00
344.84	161.00
345.20	164.00
345.56	165.00
345.92	165.00
346.28	162.00
346.65	163.00
347.01	161.00
347.37	162.00
347.73	162.00
348.09	166.00
348.45	161.00
348.82	164.00
349.18	163.00
349.54	161.00
349.90	163.00
350.26	158.00
350.62	161.00
350.98	161.00
351.35	164.00
351.71	164.00
352.07	162.00
352.43	159.00
352.79	165.00
353.15	159.00
353.51	167.00
353.87	164.00
354.24	170.00
354.60	163.00
354.96	166.00
355.32	159.00
355.68	162.00
356.04	161.00
356.40	164.00
356.76	160.00
357.12	165.00
357.48	159.00
357.85	161.00
358.21	160.00
358.57	161.00
358.93	162.00
359.29	165.00
359.65	160.00
360.01	165.00
360.37	164.00
360.73	162.00
361.09	166.00
361.45	163.00
361.81	168.00
362.17	160.00
362.53	159.00
362.89	167.00
363.25	160.00
363.62	164.00
363.98	160.00
364.34	165.00
364.70	164.00
365.06	164.00
365.42	167.00
365.78	160.00
366.14	161.00
366.50	161.00
366.86	161.00
367.22	160.00
367.58	161.00
367.94	163.00
368.30	163.00
368.66	164.00
369.02	162.00
369.38	167.00
369.74	164.00
370.10	165.00
370.46	162.00
370.82	160.00
371.18	165.00
371.54	164.00
371.90	161.00
372.26	162.00
372.62	163.00
372.98	160.00
373.33	167.00
373.69	163.00
374.05	165.00
374.41	165.00
374.77	165.00
375.13	170.00
375.49	163.00
375.85	168.00
376.21	166.00
376.57	163.00
376.93	167.00
377.29	166.00
377.65	165.00
378.01	162.00
378.37	163.00
378.73	161.00
379.08	159.00
379.44	165.00
379.80	165.00
380.16	162.00
380.52	168.00
380.88	162.00
381.24	163.00
381.60	159.00
381.96	165.00
382.32	165.00
382.67	163.00
383.03	166.00
383.39	163.00
383.75	162.00
384.11	168.00
384.47	164.00
384.83	165.00
385.19	169.00
385.54	163.00
385.90	170.00
386.26	163.00
386.62	170.00
386.98	165.00
387.34	167.00
387.70	164.00
388.05	168.00
388.41	165.00
388.77	166.00
389.13	167.00
389.49	166.00
389.85	170.00
390.20	177.00
390.56	171.00
390.92	166.00
391.28	169.00
391.64	167.00
391.99	169.00
392.35	164.00
392.71	175.00
393.07	172.00
393.43	168.00
393.78	173.00
394.14	168.00
394.50	175.00
394.86	165.00
395.22	170.00
395.57	168.00
395.93	173.00
396.29	169.00
396.65	176.00
397.00	172.00
397.36	178.00
397.72	171.00
398.08	171.00
398.43	176.00
398.79	176.00
399.15	182.00
399.51	178.00
399.86	176.00
400.22	176.00
400.58	176.00
400.94	178.00
401.29	176.00
401.65	176.00
402.01	179.00
402.37	182.00
402.72	178.00
403.08	185.00
403.44	179.00
403.79	185.00
404.15	177.00
404.51	183.00
404.86	183.00
405.22	184.00
405.58	187.00
405.94	181.00
406.29	185.00
406.65	186.00
407.01	185.00
407.36	186.00
407.72	191.00
408.08	182.00
408.43	189.00
408.79	184.00
409.15	186.00
409.50	192.00
409.86	186.00
410.22	188.00
410.57	190.00
410.93	192.00
411.29	188.00
411.64	188.00
412.00	196.00
412.35	192.00
412.71	194.00
413.07	193.00
413.42	192.00
413.78	200.00
414.14	196.00
414.49	200.00
414.85	198.00
415.20	198.00
415.56	202.00
415.92	199.00
416.27	197.00
416.63	203.00
416.98	201.00
417.34	203.00
417.70	201.00
418.05	205.00
418.41	205.00
418.76	206.00
419.12	205.00
419.47	206.00
419.83	204.00
420.19	214.00
420.54	205.00
420.90	218.00
421.25	207.00
421.61	215.00
421.96	213.00
422.32	206.00
422.67	215.00
423.03	208.00
423.39	208.00
423.74	220.00
424.10	220.00
424.45	218.00
424.81	221.00
425.16	213.00
425.52	221.00
425.87	221.00
426.23	230.00
426.58	220.00
426.94	223.00
427.29	228.00
427.65	225.00
428.00	227.00
428.36	222.00
428.71	233.00
429.07	233.00
429.42	232.00
429.78	235.00
430.13	234.00
430.49	232.00
430.84	231.00
431.19	237.00
431.55	241.00
431.90	238.00
432.26	241.00
432.61	241.00
432.97	237.00
433.32	247.00
433.68	246.00
434.03	240.00
434.39	244.00
434.74	239.00
435.09	246.00
435.45	251.00
435.80	252.00
436.16	249.00
436.51	252.00
436.86	252.00
437.22	257.00
437.57	251.00
437.93	265.00
438.28	257.00
438.63	266.00
438.99	271.00
439.34	266.00
439.70	268.00
440.05	272.00
440.40	266.00
440.76	267.00
441.11	274.00
441.47	278.00
441.82	277.00
442.17	272.00
442.53	275.00
442.88	281.00
443.23	281.00
443.59	276.00
443.94	285.00
444.29	280.00
444.65	283.00
445.00	288.00
445.35	288.00
445.71	294.00
446.06	300.00
446.41	291.00
446.77	295.00
447.12	296.00
447.47	297.00
447.83	301.00
448.18	296.00
448.53	300.00
448.89	301.00
449.24	299.00
449.59	317.00
449.94	307.00
450.30	305.00
450.65	316.00
451.00	310.00
451.36	312.00
451.71	312.00
452.06	326.00
452.41	315.00
452.77	320.00
453.12	331.00
453.47	336.00
453.82	334.00
454.18	324.00
454.53	334.00
454.88	333.00
455.23	341.00
455.59	333.00
455.94	340.00
456.29	347.00
456.64	348.00
457.00	335.00
457.35	349.00
457.70	347.00
458.05	353.00
458.40	355.00
458.76	353.00
459.11	355.00
459.46	357.00
459.81	352.00
460.16	365.00
460.52	373.00
460.87	367.00
461.22	368.00
461.57	376.00
461.92	381.00
462.28	379.00
462.63	388.00
462.98	390.00
463.33	392.00
463.68	394.00
464.03	388.00
464.38	397.00
464.74	405.00
465.09	399.00
465.44	405.00
465.79	415.00
466.14	405.00
466.49	418.00
466.84	426.00
467.20	418.00
467.55	432.00
467.90	434.00
468.25	434.00
468.60	447.00
468.95	438.00
469.30	439.00
469.65	458.00
470.00	450.00
470.36	459.00
470.71	482.00
471.06	480.00
471.41	475.00
471.76	479.00
472.11	486.00
472.46	489.00
472.81	495.00
473.16	497.00
473.51	505.00
473.86	507.00
474.21	510.00
474.56	524.00
474.91	527.00
475.26	539.00
475.62	532.00
475.97	546.00
476.32	537.00
476.67	539.00
477.02	564.00
477.37	563.00
477.72	571.00
478.07	562.00
478.42	572.00
478.77	589.00
479.12	594.00
479.47	596.00
479.82	608.00
480.17	611.00
480.52	621.00
480.87	619.00
481.22	624.00
481.57	637.00
481.92	630.00
482.27	642.00
482.62	652.00
482.97	656.00
483.32	663.00
483.67	666.00
484.02	676.00
484.36	673.00
484.71	677.00
485.06	692.00
485.41	683.00
485.76	705.00
486.11	698.00
486.46	714.00
486.81	719.00
487.16	708.00
487.51	712.00
487.86	734.00
488.21	734.00
488.56	742.00
488.91	751.00
489.25	752.00
489.60	757.00
489.95	765.00
490.30	767.00
490.65	787.00
491.00	781.00
491.35	803.00
491.70	781.00
492.05	791.00
492.39	819.00
492.74	811.00
493.09	826.00
493.44	822.00
493.79	832.00
494.14	843.00
494.49	852.00
494.83	850.00
495.18	868.00
495.53	859.00
495.88	888.00
496.23	884.00
496.58	885.00
496.92	905.00
497.27	907.00
497.62	912.00
497.97	897.00
498.32	908.00
498.67	917.00
499.01	921.00
499.36	947.00
499.71	946.00
500.06	942.00
500.41	966.00
500.75	971.00
501.10	966.00
501.45	966.00
501.80	990.00
502.14	987.00
502.49	990.00
502.84	998.00
503.19	1012.00
503.53	1017.00
503.88	1020.00
504.23	1023.00
504.58	1037.00
504.92	1040.00
505.27	1036.00
505.62	1050.00
505.97	1036.00
506.31	1045.00
506.66	1057.00
507.01	1061.00
507.36	1061.00
507.70	1059.00
508.05	1088.00
508.40	1068.00
508.74	1074.00
509.09	1078.00
509.44	1081.00
509.79	1077.00
510.13	1084.00
510.48	1077.00
510.83	1095.00
511.17	1076.00
511.52	1092.00
511.87	1089.00
512.21	1099.00
512.56	1089.00
512.91	1112.00
513.25	1099.00
513.60	1098.00
513.95	1109.00
514.29	1100.00
514.64	1101.00
514.98	1097.00
515.33	1103.00
515.68	1105.00
516.02	1109.00
516.37	1120.00
516.72	1094.00
517.06	1118.00
517.41	1137.00
517.75	1127.00
518.10	1133.00
518.45	1130.00
518.79	1140.00
519.14	1143.00
519.48	1137.00
519.83	1145.00
520.18	1135.00
520.52	1141.00
520.87	1145.00
521.21	1134.00
521.56	1132.00
521.90	1135.00
522.25	1139.00
522.60	1141.00
522.94	1121.00
523.29	1153.00
523.63	1121.00
523.98	1126.00
524.32	1141.00
524.67	1125.00
525.01	1146.00
525.36	1135.00
525.70	1136.00
526.05	1153.00
526.39	1141.00
526.74	1123.00
527.08	1151.00
527.43	1122.00
527.77	1120.00
528.12	1131.00
528.46	1127.00
528.81	1129.00
529.15	1133.00
529.50	1123.00
529.84	1135.00
530.19	1115.00
530.53	1120.00
530.88	1106.00
531.22	1117.00
531.57	1100.00
531.91	1110.00
532.26	1102.00
532.60	1100.00
532.94	1090.00
533.29	1078.00
533.63	1086.00
533.98	1072.00
534.32	1055.00
534.67	1064.00
535.01	1059.00
535.35	1064.00
535.70	1030.00
536.04	1035.00
536.39	1032.00
536.73	1033.00
537.07	1030.00
537.42	1009.00
537.76	1010.00
538.11	989.00
538.45	1004.00
538.79	988.00
539.14	979.00
539.48	977.00
539.82	964.00
540.17	971.00
540.51	955.00
540.85	953.00
541.20	961.00
541.54	941.00
541.89	935.00
542.23	933.00
542.57	933.00
542.92	932.00
543.26	929.00
543.60	923.00
543.94	928.00
544.29	923.00
544.63	929.00
544.97	921.00
545.32	944.00
545.66	925.00
546.00	919.00
546.35	932.00
546.69	938.00
547.03	939.00
547.37	938.00
547.72	920.00
548.06	945.00
548.40	943.00
548.75	944.00
549.09	955.00
549.43	940.00
549.77	949.00
550.12	954.00
550.46	955.00
550.80	967.00
551.14	967.00
551.49	979.00
551.83	993.00
552.17	996.00
552.51	994.00
552.85	996.00
553.20	1011.00
553.54	1023.00
553.88	1018.00
554.22	1047.00
554.56	1053.00
554.91	1053.00
555.25	1050.00
555.59	1072.00
555.93	1091.00
556.27	1080.00
556.62	1094.00
556.96	1115.00
557.30	1097.00
557.64	1116.00
557.98	1118.00
558.32	1145.00
558.67	1151.00
559.01	1165.00
559.35	1168.00
559.69	1169.00
560.03	1199.00
560.37	1202.00
560.71	1221.00
561.05	1222.00
561.40	1222.00
561.74	1238.00
562.08	1236.00
562.42	1235.00
562.76	1251.00
563.10	1274.00
563.44	1276.00
563.78	1273.00
564.12	1301.00
564.46	1294.00
564.81	1294.00
565.15	1304.00
565.49	1301.00
565.83	1287.00
566.17	1299.00
566.51	1304.00
566.85	1309.00
567.19	1310.00
567.53	1314.00
567.87	1317.00
568.21	1340.00
568.55	1323.00
568.89	1311.00
569.23	1328.00
569.57	1329.00
569.91	1320.00
570.25	1315.00
570.59	1337.00
570.93	1327.00
571.27	1341.00
571.61	1313.00
571.95	1306.00
572.29	1318.00
572.63	1310.00
572.97	1306.00
573.31	1305.00
573.65	1300.00
573.99	1276.00
574.33	1295.00
574.67	1284.00
575.01	1293.00
575.35	1292.00
575.69	1285.00
576.03	1262.00
576.37	1270.00
576.71	1290.00
577.05	1256.00
577.39	1254.00
577.73	1248.00
578.06	1248.00
578.40	1242.00
578.74	1223.00
579.08	1223.00
579.42	1218.00
579.76	1222.00
580.10	1200.00
580.44	1202.00
580.78	1202.00
581.12	1182.00
581.45	1182.00
581.79	1191.00
582.13	1149.00
582.47	1182.00
582.81	1168.00
583.15	1166.00
583.49	1163.00
583.83	1145.00
584.16	1145.00
584.50	1135.00
584.84	1129.00
585.18	1122.00
585.52	1122.00
585.86	1114.00
586.19	1104.00
586.53	1082.00
586.87	1092.00
587.21	1096.00
587.55	1079.00
587.88	1093.00
588.22	1067.00
588.56	1062.00
588.90	1056.00
589.24	1044.00
589.57	1068.00
589.91	1049.00
590.25	1030.00
590.59	1028.00
590.92	1024.00
591.26	1006.00
591.60	998.00
591.94	1005.00
592.27	987.00
592.61	978.00
592.95	965.00
593.29	943.00
593.62	960.00
593.96	944.00
594.30	943.00
594.64	930.00
594.97	920.00
595.31	898.00
595.65	883.00
595.98	884.00
596.32	847.00
596.66	849.00
597.00	832.00
597.33	833.00
597.67	813.00
598.01	793.00
598.34	770.00
598.68	760.00
599.02	756.00
599.35	738.00
599.69	718.00
600.03	727.00
600.36	701.00
600.70	676.00
601.03	660.00
601.37	659.00
601.71	657.00
602.04	639.00
602.38	619.00
602.72	610.00
603.05	611.00
603.39	594.00
603.72	571.00
604.06	573.00
604.40	561.00
604.73	545.00
605.07	532.00
605.40	527.00
605.74	513.00
606.08	504.00
606.41	484.00
606.75	481.00
607.08	474.00
607.42	461.00
607.75	454.00
608.09	436.00
608.42	437.00
608.76	416.00
609.10	403.00
609.43	395.00
609.77	382.00
610.10	375.00
610.44	374.00
610.77	361.00
611.11	347.00
611.44	336.00
611.78	334.00
612.11	321.00
612.45	307.00
612.78	307.00
613.12	299.00
613.45	284.00
613.79	283.00
614.12	282.00
614.46	272.00
614.79	268.00
615.13	259.00
615.46	253.00
615.79	254.00
616.13	243.00
616.46	247.00
616.80	243.00
617.13	240.00
617.47	236.00
617.80	226.00
618.13	224.00
618.47	225.00
618.80	225.00
619.14	214.00
619.47	219.00
619.81	214.00
620.14	214.00
620.47	220.00
620.81	209.00
621.14	206.00
621.47	209.00
621.81	207.00
622.14	209.00
622.48	198.00
622.81	210.00
623.14	198.00
623.48	196.00
623.81	201.00
624.14	207.00
624.48	196.00
624.81	204.00
625.14	197.00
625.48	194.00
625.81	197.00
626.14	196.00
626.48	189.00
626.81	197.00
627.14	197.00
627.48	197.00
627.81	195.00
628.14	194.00
628.47	203.00
628.81	197.00
629.14	202.00
629.47	202.00
629.81	205.00
630.14	204.00
630.47	206.00
630.80	204.00
631.14	205.00
631.47	216.00
631.80	213.00
632.13	212.00
632.47	215.00
632.80	221.00
633.13	226.00
633.46	230.00
