SpectraSuite Data File
++++++++++++++++++++++++++++++++++++
Date: Tue Jun 16 11:33:06 BST 2015
User: mpfc3
Dark Spectrum Present: No
Reference Spectrum Present: No
Number of Sampled Component Spectra: 1
Spectrometers: USB2E3636
Integration Time (usec): 30000 (USB2E3636)
Spectra Averaged: 1 (USB2E3636)
Boxcar Smoothing: 0 (USB2E3636)
Correct for Electrical Dark: No (USB2E3636)
Strobe/Lamp Enabled: No (USB2E3636)
Correct for Detector Non-linearity: No (USB2E3636)
Correct for Stray Light: No (USB2E3636)
Number of Pixels in Processed Spectrum: 2048
>>>>>Begin Processed Spectral Data<<<<<
180.28	0.00
180.65	150.00
181.02	149.00
181.39	150.00
181.77	155.00
182.14	160.00
182.51	161.00
182.88	155.00
183.25	153.00
183.63	160.00
184.00	157.00
184.37	160.00
184.74	156.00
185.11	160.00
185.49	153.00
185.86	155.00
186.23	162.00
186.60	154.00
186.97	161.00
187.35	157.00
187.72	152.00
188.09	156.00
188.46	154.00
188.83	153.00
189.20	159.00
189.58	161.00
189.95	159.00
190.32	156.00
190.69	155.00
191.06	160.00
191.43	156.00
191.81	163.00
192.18	157.00
192.55	164.00
192.92	157.00
193.29	164.00
193.66	162.00
194.03	162.00
194.41	156.00
194.78	165.00
195.15	159.00
195.52	165.00
195.89	157.00
196.26	160.00
196.63	160.00
197.01	159.00
197.38	162.00
197.75	161.00
198.12	163.00
198.49	162.00
198.86	161.00
199.23	158.00
199.60	158.00
199.98	162.00
200.35	161.00
200.72	159.00
201.09	159.00
201.46	167.00
201.83	161.00
202.20	158.00
202.57	164.00
202.94	163.00
203.31	162.00
203.69	159.00
204.06	163.00
204.43	159.00
204.80	161.00
205.17	159.00
205.54	162.00
205.91	161.00
206.28	160.00
206.65	162.00
207.02	164.00
207.39	164.00
207.76	163.00
208.14	159.00
208.51	162.00
208.88	163.00
209.25	159.00
209.62	165.00
209.99	168.00
210.36	162.00
210.73	158.00
211.10	160.00
211.47	165.00
211.84	158.00
212.21	160.00
212.58	161.00
212.95	159.00
213.32	158.00
213.69	163.00
214.06	164.00
214.43	161.00
214.80	162.00
215.17	163.00
215.55	157.00
215.92	166.00
216.29	157.00
216.66	156.00
217.03	163.00
217.40	161.00
217.77	162.00
218.14	162.00
218.51	161.00
218.88	168.00
219.25	162.00
219.62	162.00
219.99	164.00
220.36	161.00
220.73	159.00
221.10	160.00
221.47	163.00
221.84	160.00
222.21	166.00
222.58	164.00
222.95	162.00
223.32	166.00
223.69	163.00
224.06	163.00
224.43	161.00
224.80	162.00
225.17	158.00
225.54	158.00
225.91	164.00
226.27	173.00
226.64	159.00
227.01	166.00
227.38	158.00
227.75	158.00
228.12	165.00
228.49	162.00
228.86	159.00
229.23	156.00
229.60	163.00
229.97	163.00
230.34	162.00
230.71	163.00
231.08	161.00
231.45	163.00
231.82	166.00
232.19	167.00
232.56	162.00
232.93	159.00
233.30	168.00
233.66	163.00
234.03	161.00
234.40	162.00
234.77	164.00
235.14	163.00
235.51	159.00
235.88	161.00
236.25	159.00
236.62	162.00
236.99	164.00
237.36	162.00
237.73	160.00
238.09	160.00
238.46	164.00
238.83	160.00
239.20	161.00
239.57	157.00
239.94	164.00
240.31	164.00
240.68	164.00
241.05	167.00
241.41	167.00
241.78	165.00
242.15	163.00
242.52	162.00
242.89	164.00
243.26	161.00
243.63	163.00
244.00	159.00
244.36	157.00
244.73	164.00
245.10	167.00
245.47	162.00
245.84	157.00
246.21	163.00
246.58	160.00
246.94	163.00
247.31	164.00
247.68	166.00
248.05	161.00
248.42	160.00
248.79	166.00
249.15	168.00
249.52	163.00
249.89	164.00
250.26	170.00
250.63	165.00
251.00	166.00
251.36	163.00
251.73	165.00
252.10	164.00
252.47	167.00
252.84	162.00
253.20	167.00
253.57	160.00
253.94	162.00
254.31	164.00
254.68	170.00
255.05	162.00
255.41	167.00
255.78	161.00
256.15	159.00
256.52	163.00
256.88	162.00
257.25	163.00
257.62	165.00
257.99	163.00
258.36	162.00
258.72	161.00
259.09	159.00
259.46	166.00
259.83	160.00
260.19	164.00
260.56	160.00
260.93	164.00
261.30	161.00
261.67	163.00
262.03	161.00
262.40	166.00
262.77	157.00
263.14	159.00
263.50	161.00
263.87	163.00
264.24	162.00
264.61	161.00
264.97	163.00
265.34	163.00
265.71	167.00
266.07	163.00
266.44	165.00
266.81	163.00
267.18	167.00
267.54	168.00
267.91	164.00
268.28	165.00
268.64	166.00
269.01	164.00
269.38	161.00
269.75	165.00
270.11	163.00
270.48	162.00
270.85	164.00
271.21	165.00
271.58	165.00
271.95	163.00
272.32	160.00
272.68	164.00
273.05	166.00
273.42	164.00
273.78	165.00
274.15	164.00
274.52	165.00
274.88	165.00
275.25	158.00
275.62	162.00
275.98	163.00
276.35	160.00
276.72	160.00
277.08	162.00
277.45	159.00
277.82	164.00
278.18	162.00
278.55	163.00
278.92	162.00
279.28	164.00
279.65	163.00
280.01	165.00
280.38	162.00
280.75	159.00
281.11	164.00
281.48	161.00
281.85	165.00
282.21	166.00
282.58	164.00
282.95	166.00
283.31	162.00
283.68	163.00
284.04	165.00
284.41	161.00
284.78	165.00
285.14	166.00
285.51	162.00
285.87	164.00
286.24	166.00
286.61	164.00
286.97	159.00
287.34	163.00
287.70	161.00
288.07	159.00
288.44	165.00
288.80	162.00
289.17	166.00
289.53	161.00
289.90	168.00
290.26	167.00
290.63	160.00
291.00	162.00
291.36	164.00
291.73	163.00
292.09	161.00
292.46	163.00
292.82	165.00
293.19	166.00
293.56	161.00
293.92	160.00
294.29	164.00
294.65	160.00
295.02	161.00
295.38	163.00
295.75	165.00
296.11	162.00
296.48	165.00
296.84	166.00
297.21	159.00
297.57	164.00
297.94	160.00
298.30	160.00
298.67	164.00
299.04	163.00
299.40	164.00
299.77	161.00
300.13	164.00
300.50	162.00
300.86	160.00
301.23	160.00
301.59	158.00
301.96	164.00
302.32	164.00
302.69	163.00
303.05	164.00
303.42	159.00
303.78	165.00
304.14	163.00
304.51	165.00
304.87	164.00
305.24	166.00
305.60	161.00
305.97	165.00
306.33	159.00
306.70	164.00
307.06	164.00
307.43	167.00
307.79	162.00
308.16	165.00
308.52	161.00
308.88	163.00
309.25	163.00
309.61	160.00
309.98	158.00
310.34	167.00
310.71	164.00
311.07	161.00
311.44	165.00
311.80	163.00
312.16	163.00
312.53	161.00
312.89	166.00
313.26	160.00
313.62	166.00
313.98	168.00
314.35	161.00
314.71	162.00
315.08	162.00
315.44	167.00
315.80	166.00
316.17	167.00
316.53	166.00
316.90	162.00
317.26	166.00
317.62	164.00
317.99	161.00
318.35	161.00
318.72	167.00
319.08	164.00
319.44	162.00
319.81	165.00
320.17	165.00
320.53	166.00
320.90	167.00
321.26	163.00
321.62	162.00
321.99	162.00
322.35	165.00
322.72	160.00
323.08	161.00
323.44	163.00
323.81	160.00
324.17	164.00
324.53	157.00
324.90	166.00
325.26	162.00
325.62	162.00
325.99	164.00
326.35	162.00
326.71	163.00
327.08	168.00
327.44	166.00
327.80	164.00
328.16	167.00
328.53	165.00
328.89	166.00
329.25	162.00
329.62	162.00
329.98	163.00
330.34	165.00
330.71	163.00
331.07	161.00
331.43	169.00
331.79	164.00
332.16	162.00
332.52	167.00
332.88	170.00
333.24	166.00
333.61	163.00
333.97	162.00
334.33	159.00
334.70	165.00
335.06	164.00
335.42	165.00
335.78	161.00
336.15	164.00
336.51	164.00
336.87	161.00
337.23	164.00
337.60	159.00
337.96	165.00
338.32	163.00
338.68	164.00
339.04	164.00
339.41	165.00
339.77	165.00
340.13	163.00
340.49	160.00
340.86	158.00
341.22	171.00
341.58	158.00
341.94	163.00
342.30	164.00
342.67	160.00
343.03	161.00
343.39	165.00
343.75	160.00
344.11	167.00
344.48	166.00
344.84	164.00
345.20	160.00
345.56	163.00
345.92	160.00
346.28	160.00
346.65	168.00
347.01	164.00
347.37	161.00
347.73	167.00
348.09	164.00
348.45	160.00
348.82	168.00
349.18	165.00
349.54	158.00
349.90	164.00
350.26	168.00
350.62	160.00
350.98	164.00
351.35	167.00
351.71	161.00
352.07	164.00
352.43	161.00
352.79	169.00
353.15	162.00
353.51	164.00
353.87	162.00
354.24	164.00
354.60	162.00
354.96	162.00
355.32	163.00
355.68	162.00
356.04	165.00
356.40	160.00
356.76	160.00
357.12	162.00
357.48	167.00
357.85	162.00
358.21	162.00
358.57	165.00
358.93	165.00
359.29	160.00
359.65	162.00
360.01	162.00
360.37	166.00
360.73	160.00
361.09	164.00
361.45	167.00
361.81	163.00
362.17	163.00
362.53	164.00
362.89	165.00
363.25	165.00
363.62	162.00
363.98	165.00
364.34	163.00
364.70	162.00
365.06	164.00
365.42	160.00
365.78	162.00
366.14	163.00
366.50	165.00
366.86	164.00
367.22	165.00
367.58	164.00
367.94	164.00
368.30	168.00
368.66	164.00
369.02	159.00
369.38	166.00
369.74	167.00
370.10	165.00
370.46	169.00
370.82	159.00
371.18	167.00
371.54	163.00
371.90	162.00
372.26	165.00
372.62	161.00
372.98	166.00
373.33	162.00
373.69	164.00
374.05	164.00
374.41	166.00
374.77	164.00
375.13	166.00
375.49	164.00
375.85	166.00
376.21	161.00
376.57	166.00
376.93	164.00
377.29	162.00
377.65	164.00
378.01	170.00
378.37	168.00
378.73	164.00
379.08	165.00
379.44	167.00
379.80	164.00
380.16	168.00
380.52	162.00
380.88	158.00
381.24	166.00
381.60	169.00
381.96	162.00
382.32	168.00
382.67	168.00
383.03	164.00
383.39	171.00
383.75	163.00
384.11	165.00
384.47	167.00
384.83	163.00
385.19	167.00
385.54	167.00
385.90	166.00
386.26	167.00
386.62	168.00
386.98	167.00
387.34	171.00
387.70	167.00
388.05	172.00
388.41	167.00
388.77	171.00
389.13	171.00
389.49	165.00
389.85	168.00
390.20	171.00
390.56	171.00
390.92	170.00
391.28	169.00
391.64	172.00
391.99	169.00
392.35	170.00
392.71	167.00
393.07	172.00
393.43	174.00
393.78	173.00
394.14	175.00
394.50	170.00
394.86	171.00
395.22	170.00
395.57	172.00
395.93	174.00
396.29	168.00
396.65	175.00
397.00	175.00
397.36	170.00
397.72	172.00
398.08	175.00
398.43	169.00
398.79	174.00
399.15	173.00
399.51	179.00
399.86	177.00
400.22	181.00
400.58	173.00
400.94	178.00
401.29	177.00
401.65	179.00
402.01	178.00
402.37	184.00
402.72	183.00
403.08	182.00
403.44	178.00
403.79	182.00
404.15	180.00
404.51	179.00
404.86	182.00
405.22	188.00
405.58	184.00
405.94	181.00
406.29	186.00
406.65	180.00
407.01	190.00
407.36	187.00
407.72	187.00
408.08	188.00
408.43	185.00
408.79	185.00
409.15	186.00
409.50	192.00
409.86	186.00
410.22	191.00
410.57	189.00
410.93	192.00
411.29	191.00
411.64	191.00
412.00	196.00
412.35	190.00
412.71	200.00
413.07	196.00
413.42	206.00
413.78	190.00
414.14	195.00
414.49	198.00
414.85	191.00
415.20	199.00
415.56	199.00
415.92	201.00
416.27	200.00
416.63	199.00
416.98	207.00
417.34	201.00
417.70	205.00
418.05	202.00
418.41	205.00
418.76	206.00
419.12	205.00
419.47	208.00
419.83	207.00
420.19	212.00
420.54	212.00
420.90	207.00
421.25	209.00
421.61	214.00
421.96	216.00
422.32	213.00
422.67	210.00
423.03	222.00
423.39	221.00
423.74	219.00
424.10	216.00
424.45	218.00
424.81	222.00
425.16	217.00
425.52	223.00
425.87	226.00
426.23	222.00
426.58	222.00
426.94	231.00
427.29	232.00
427.65	223.00
428.00	229.00
428.36	229.00
428.71	228.00
429.07	233.00
429.42	229.00
429.78	238.00
430.13	237.00
430.49	239.00
430.84	240.00
431.19	236.00
431.55	239.00
431.90	248.00
432.26	239.00
432.61	240.00
432.97	240.00
433.32	242.00
433.68	245.00
434.03	246.00
434.39	250.00
434.74	241.00
435.09	248.00
435.45	251.00
435.80	254.00
436.16	256.00
436.51	251.00
436.86	255.00
437.22	258.00
437.57	263.00
437.93	255.00
438.28	261.00
438.63	263.00
438.99	263.00
439.34	269.00
439.70	270.00
440.05	271.00
440.40	272.00
440.76	278.00
441.11	271.00
441.47	273.00
441.82	281.00
442.17	284.00
442.53	281.00
442.88	274.00
443.23	285.00
443.59	278.00
443.94	289.00
444.29	285.00
444.65	284.00
445.00	291.00
445.35	298.00
445.71	301.00
446.06	296.00
446.41	291.00
446.77	293.00
447.12	307.00
447.47	303.00
447.83	303.00
448.18	308.00
448.53	294.00
448.89	299.00
449.24	305.00
449.59	317.00
449.94	312.00
450.30	301.00
450.65	312.00
451.00	318.00
451.36	324.00
451.71	308.00
452.06	325.00
452.41	325.00
452.77	321.00
453.12	333.00
453.47	333.00
453.82	332.00
454.18	323.00
454.53	330.00
454.88	328.00
455.23	334.00
455.59	339.00
455.94	351.00
456.29	340.00
456.64	344.00
457.00	341.00
457.35	354.00
457.70	343.00
458.05	352.00
458.40	364.00
458.76	359.00
459.11	364.00
459.46	356.00
459.81	354.00
460.16	361.00
460.52	379.00
460.87	363.00
461.22	369.00
461.57	371.00
461.92	370.00
462.28	380.00
462.63	391.00
462.98	380.00
463.33	392.00
463.68	386.00
464.03	402.00
464.38	404.00
464.74	403.00
465.09	412.00
465.44	401.00
465.79	405.00
466.14	405.00
466.49	422.00
466.84	418.00
467.20	428.00
467.55	425.00
467.90	436.00
468.25	438.00
468.60	450.00
468.95	440.00
469.30	442.00
469.65	448.00
470.00	452.00
470.36	469.00
470.71	466.00
471.06	470.00
471.41	468.00
471.76	488.00
472.11	473.00
472.46	486.00
472.81	498.00
473.16	512.00
473.51	500.00
473.86	509.00
474.21	512.00
474.56	525.00
474.91	528.00
475.26	525.00
475.62	529.00
475.97	557.00
476.32	548.00
476.67	542.00
477.02	547.00
477.37	564.00
477.72	579.00
478.07	574.00
478.42	584.00
478.77	583.00
479.12	603.00
479.47	597.00
479.82	605.00
480.17	615.00
480.52	627.00
480.87	623.00
481.22	629.00
481.57	631.00
481.92	631.00
482.27	647.00
482.62	657.00
482.97	658.00
483.32	652.00
483.67	657.00
484.02	665.00
484.36	667.00
484.71	682.00
485.06	689.00
485.41	681.00
485.76	700.00
486.11	712.00
486.46	712.00
486.81	708.00
487.16	714.00
487.51	724.00
487.86	728.00
488.21	738.00
488.56	755.00
488.91	742.00
489.25	763.00
489.60	759.00
489.95	760.00
490.30	771.00
490.65	776.00
491.00	788.00
491.35	780.00
491.70	796.00
492.05	799.00
492.39	813.00
492.74	810.00
493.09	824.00
493.44	824.00
493.79	836.00
494.14	844.00
494.49	830.00
494.83	855.00
495.18	851.00
495.53	871.00
495.88	880.00
496.23	892.00
496.58	892.00
496.92	876.00
497.27	900.00
497.62	903.00
497.97	904.00
498.32	935.00
498.67	914.00
499.01	946.00
499.36	958.00
499.71	947.00
500.06	951.00
500.41	969.00
500.75	973.00
501.10	973.00
501.45	968.00
501.80	986.00
502.14	1001.00
502.49	994.00
502.84	993.00
503.19	1003.00
503.53	1012.00
503.88	1013.00
504.23	1022.00
504.58	1031.00
504.92	1020.00
505.27	1047.00
505.62	1039.00
505.97	1039.00
506.31	1039.00
506.66	1062.00
507.01	1061.00
507.36	1071.00
507.70	1057.00
508.05	1086.00
508.40	1060.00
508.74	1084.00
509.09	1075.00
509.44	1083.00
509.79	1089.00
510.13	1084.00
510.48	1068.00
510.83	1085.00
511.17	1086.00
511.52	1071.00
511.87	1090.00
512.21	1078.00
512.56	1083.00
512.91	1103.00
513.25	1084.00
513.60	1108.00
513.95	1122.00
514.29	1101.00
514.64	1132.00
514.98	1097.00
515.33	1125.00
515.68	1126.00
516.02	1140.00
516.37	1126.00
516.72	1137.00
517.06	1136.00
517.41	1145.00
517.75	1124.00
518.10	1125.00
518.45	1124.00
518.79	1129.00
519.14	1135.00
519.48	1135.00
519.83	1138.00
520.18	1127.00
520.52	1149.00
520.87	1148.00
521.21	1141.00
521.56	1137.00
521.90	1140.00
522.25	1142.00
522.60	1143.00
522.94	1152.00
523.29	1160.00
523.63	1139.00
523.98	1132.00
524.32	1142.00
524.67	1133.00
525.01	1132.00
525.36	1141.00
525.70	1151.00
526.05	1158.00
526.39	1115.00
526.74	1137.00
527.08	1146.00
527.43	1142.00
527.77	1131.00
528.12	1137.00
528.46	1135.00
528.81	1109.00
529.15	1125.00
529.50	1133.00
529.84	1115.00
530.19	1122.00
530.53	1116.00
530.88	1102.00
531.22	1108.00
531.57	1110.00
531.91	1105.00
532.26	1099.00
532.60	1105.00
532.94	1080.00
533.29	1101.00
533.63	1083.00
533.98	1070.00
534.32	1070.00
534.67	1072.00
535.01	1058.00
535.35	1033.00
535.70	1050.00
536.04	1025.00
536.39	1040.00
536.73	1026.00
537.07	1019.00
537.42	1022.00
537.76	998.00
538.11	995.00
538.45	977.00
538.79	987.00
539.14	985.00
539.48	973.00
539.82	975.00
540.17	966.00
540.51	958.00
540.85	954.00
541.20	950.00
541.54	950.00
541.89	953.00
542.23	952.00
542.57	941.00
542.92	925.00
543.26	938.00
543.60	942.00
543.94	929.00
544.29	929.00
544.63	928.00
544.97	934.00
545.32	924.00
545.66	933.00
546.00	934.00
546.35	922.00
546.69	933.00
547.03	934.00
547.37	934.00
547.72	931.00
548.06	940.00
548.40	921.00
548.75	950.00
549.09	942.00
549.43	960.00
549.77	971.00
550.12	949.00
550.46	961.00
550.80	954.00
551.14	987.00
551.49	998.00
551.83	995.00
552.17	987.00
552.51	988.00
552.85	1006.00
553.20	993.00
553.54	1030.00
553.88	1013.00
554.22	1034.00
554.56	1054.00
554.91	1053.00
555.25	1047.00
555.59	1074.00
555.93	1068.00
556.27	1101.00
556.62	1103.00
556.96	1103.00
557.30	1102.00
557.64	1110.00
557.98	1127.00
558.32	1155.00
558.67	1133.00
559.01	1159.00
559.35	1173.00
559.69	1193.00
560.03	1203.00
560.37	1195.00
560.71	1189.00
561.05	1204.00
561.40	1221.00
561.74	1236.00
562.08	1234.00
562.42	1238.00
562.76	1254.00
563.10	1273.00
563.44	1266.00
563.78	1274.00
564.12	1283.00
564.46	1285.00
564.81	1294.00
565.15	1304.00
565.49	1312.00
565.83	1304.00
566.17	1319.00
566.51	1317.00
566.85	1324.00
567.19	1303.00
567.53	1315.00
567.87	1333.00
568.21	1307.00
568.55	1311.00
568.89	1338.00
569.23	1316.00
569.57	1338.00
569.91	1331.00
570.25	1314.00
570.59	1328.00
570.93	1323.00
571.27	1318.00
571.61	1319.00
571.95	1320.00
572.29	1319.00
572.63	1330.00
572.97	1323.00
573.31	1332.00
573.65	1301.00
573.99	1305.00
574.33	1299.00
574.67	1300.00
575.01	1283.00
575.35	1288.00
575.69	1284.00
576.03	1285.00
576.37	1273.00
576.71	1271.00
577.05	1271.00
577.39	1250.00
577.73	1253.00
578.06	1245.00
578.40	1239.00
578.74	1231.00
579.08	1217.00
579.42	1222.00
579.76	1206.00
580.10	1205.00
580.44	1197.00
580.78	1209.00
581.12	1193.00
581.45	1193.00
581.79	1183.00
582.13	1171.00
582.47	1166.00
582.81	1153.00
583.15	1146.00
583.49	1152.00
583.83	1136.00
584.16	1130.00
584.50	1141.00
584.84	1123.00
585.18	1116.00
585.52	1111.00
585.86	1111.00
586.19	1109.00
586.53	1106.00
586.87	1101.00
587.21	1094.00
587.55	1087.00
587.88	1100.00
588.22	1088.00
588.56	1088.00
588.90	1069.00
589.24	1068.00
589.57	1050.00
589.91	1044.00
590.25	1032.00
590.59	1040.00
590.92	1030.00
591.26	1023.00
591.60	1001.00
591.94	1003.00
592.27	985.00
592.61	970.00
592.95	962.00
593.29	966.00
593.62	954.00
593.96	946.00
594.30	936.00
594.64	931.00
594.97	914.00
595.31	917.00
595.65	875.00
595.98	874.00
596.32	875.00
596.66	851.00
597.00	831.00
597.33	830.00
597.67	811.00
598.01	821.00
598.34	789.00
598.68	760.00
599.02	755.00
599.35	743.00
599.69	725.00
600.03	719.00
600.36	690.00
600.70	696.00
601.03	667.00
601.37	665.00
601.71	651.00
602.04	629.00
602.38	621.00
602.72	625.00
603.05	601.00
603.39	587.00
603.72	577.00
604.06	575.00
604.40	563.00
604.73	548.00
605.07	543.00
605.40	521.00
605.74	515.00
606.08	501.00
606.41	492.00
606.75	486.00
607.08	471.00
607.42	460.00
607.75	452.00
608.09	436.00
608.42	432.00
608.76	423.00
609.10	408.00
609.43	396.00
609.77	381.00
610.10	378.00
610.44	376.00
610.77	362.00
611.11	350.00
611.44	343.00
611.78	326.00
612.11	324.00
612.45	319.00
612.78	312.00
613.12	300.00
613.45	301.00
613.79	288.00
614.12	283.00
614.46	280.00
614.79	275.00
615.13	266.00
615.46	263.00
615.79	257.00
616.13	254.00
616.46	240.00
616.80	244.00
617.13	236.00
617.47	238.00
617.80	235.00
618.13	230.00
618.47	231.00
618.80	227.00
619.14	216.00
619.47	220.00
619.81	218.00
620.14	217.00
620.47	210.00
620.81	214.00
621.14	210.00
621.47	214.00
621.81	207.00
622.14	207.00
622.48	201.00
622.81	202.00
623.14	205.00
623.48	210.00
623.81	201.00
624.14	197.00
624.48	197.00
624.81	201.00
625.14	203.00
625.48	198.00
625.81	194.00
626.14	202.00
626.48	196.00
626.81	200.00
627.14	197.00
627.48	199.00
627.81	196.00
628.14	200.00
628.47	198.00
628.81	196.00
629.14	202.00
629.47	208.00
629.81	203.00
630.14	208.00
630.47	207.00
630.80	208.00
631.14	210.00
631.47	206.00
631.80	219.00
632.13	214.00
632.47	218.00
632.80	218.00
633.13	224.00
633.46	229.00
