SpectraSuite Data File
++++++++++++++++++++++++++++++++++++
Date: Tue Jun 16 11:28:06 BST 2015
User: mpfc3
Dark Spectrum Present: No
Reference Spectrum Present: No
Number of Sampled Component Spectra: 1
Spectrometers: USB2E3636
Integration Time (usec): 30000 (USB2E3636)
Spectra Averaged: 1 (USB2E3636)
Boxcar Smoothing: 0 (USB2E3636)
Correct for Electrical Dark: No (USB2E3636)
Strobe/Lamp Enabled: No (USB2E3636)
Correct for Detector Non-linearity: No (USB2E3636)
Correct for Stray Light: No (USB2E3636)
Number of Pixels in Processed Spectrum: 2048
>>>>>Begin Processed Spectral Data<<<<<
180.28	0.00
180.65	150.00
181.02	154.00
181.39	153.00
181.77	155.00
182.14	157.00
182.51	160.00
182.88	161.00
183.25	156.00
183.63	154.00
184.00	155.00
184.37	158.00
184.74	161.00
185.11	158.00
185.49	156.00
185.86	153.00
186.23	152.00
186.60	156.00
186.97	159.00
187.35	155.00
187.72	157.00
188.09	160.00
188.46	155.00
188.83	160.00
189.20	157.00
189.58	156.00
189.95	161.00
190.32	156.00
190.69	161.00
191.06	161.00
191.43	154.00
191.81	159.00
192.18	162.00
192.55	164.00
192.92	161.00
193.29	162.00
193.66	166.00
194.03	162.00
194.41	163.00
194.78	162.00
195.15	161.00
195.52	161.00
195.89	165.00
196.26	161.00
196.63	154.00
197.01	161.00
197.38	163.00
197.75	164.00
198.12	159.00
198.49	155.00
198.86	160.00
199.23	162.00
199.60	160.00
199.98	161.00
200.35	165.00
200.72	159.00
201.09	162.00
201.46	162.00
201.83	162.00
202.20	163.00
202.57	166.00
202.94	160.00
203.31	162.00
203.69	158.00
204.06	164.00
204.43	162.00
204.80	158.00
205.17	162.00
205.54	157.00
205.91	157.00
206.28	160.00
206.65	165.00
207.02	161.00
207.39	163.00
207.76	161.00
208.14	159.00
208.51	163.00
208.88	158.00
209.25	159.00
209.62	159.00
209.99	162.00
210.36	165.00
210.73	162.00
211.10	161.00
211.47	160.00
211.84	164.00
212.21	163.00
212.58	162.00
212.95	163.00
213.32	161.00
213.69	156.00
214.06	162.00
214.43	160.00
214.80	162.00
215.17	159.00
215.55	163.00
215.92	158.00
216.29	163.00
216.66	156.00
217.03	155.00
217.40	159.00
217.77	160.00
218.14	163.00
218.51	162.00
218.88	164.00
219.25	157.00
219.62	164.00
219.99	161.00
220.36	163.00
220.73	167.00
221.10	164.00
221.47	163.00
221.84	161.00
222.21	162.00
222.58	158.00
222.95	165.00
223.32	158.00
223.69	159.00
224.06	165.00
224.43	162.00
224.80	167.00
225.17	156.00
225.54	156.00
225.91	164.00
226.27	168.00
226.64	163.00
227.01	164.00
227.38	157.00
227.75	164.00
228.12	159.00
228.49	163.00
228.86	161.00
229.23	167.00
229.60	159.00
229.97	157.00
230.34	161.00
230.71	167.00
231.08	165.00
231.45	162.00
231.82	162.00
232.19	161.00
232.56	162.00
232.93	162.00
233.30	163.00
233.66	166.00
234.03	165.00
234.40	157.00
234.77	163.00
235.14	161.00
235.51	163.00
235.88	158.00
236.25	163.00
236.62	168.00
236.99	165.00
237.36	161.00
237.73	168.00
238.09	157.00
238.46	164.00
238.83	166.00
239.20	163.00
239.57	165.00
239.94	159.00
240.31	161.00
240.68	159.00
241.05	163.00
241.41	161.00
241.78	164.00
242.15	159.00
242.52	162.00
242.89	161.00
243.26	162.00
243.63	158.00
244.00	160.00
244.36	161.00
244.73	172.00
245.10	166.00
245.47	162.00
245.84	161.00
246.21	162.00
246.58	165.00
246.94	166.00
247.31	165.00
247.68	162.00
248.05	164.00
248.42	163.00
248.79	160.00
249.15	161.00
249.52	165.00
249.89	161.00
250.26	166.00
250.63	166.00
251.00	166.00
251.36	167.00
251.73	159.00
252.10	162.00
252.47	165.00
252.84	164.00
253.20	166.00
253.57	161.00
253.94	164.00
254.31	164.00
254.68	159.00
255.05	166.00
255.41	159.00
255.78	160.00
256.15	162.00
256.52	161.00
256.88	164.00
257.25	164.00
257.62	165.00
257.99	159.00
258.36	162.00
258.72	164.00
259.09	163.00
259.46	167.00
259.83	167.00
260.19	165.00
260.56	159.00
260.93	165.00
261.30	162.00
261.67	161.00
262.03	164.00
262.40	158.00
262.77	166.00
263.14	159.00
263.50	164.00
263.87	160.00
264.24	158.00
264.61	162.00
264.97	157.00
265.34	166.00
265.71	161.00
266.07	163.00
266.44	161.00
266.81	160.00
267.18	166.00
267.54	165.00
267.91	165.00
268.28	162.00
268.64	161.00
269.01	158.00
269.38	164.00
269.75	161.00
270.11	165.00
270.48	164.00
270.85	162.00
271.21	161.00
271.58	166.00
271.95	158.00
272.32	162.00
272.68	164.00
273.05	159.00
273.42	169.00
273.78	160.00
274.15	162.00
274.52	164.00
274.88	162.00
275.25	164.00
275.62	167.00
275.98	162.00
276.35	163.00
276.72	163.00
277.08	162.00
277.45	167.00
277.82	161.00
278.18	163.00
278.55	162.00
278.92	163.00
279.28	164.00
279.65	162.00
280.01	162.00
280.38	166.00
280.75	164.00
281.11	163.00
281.48	162.00
281.85	162.00
282.21	160.00
282.58	161.00
282.95	161.00
283.31	162.00
283.68	163.00
284.04	163.00
284.41	165.00
284.78	167.00
285.14	170.00
285.51	164.00
285.87	161.00
286.24	162.00
286.61	162.00
286.97	164.00
287.34	167.00
287.70	162.00
288.07	162.00
288.44	158.00
288.80	164.00
289.17	161.00
289.53	167.00
289.90	164.00
290.26	161.00
290.63	164.00
291.00	159.00
291.36	163.00
291.73	163.00
292.09	160.00
292.46	166.00
292.82	161.00
293.19	170.00
293.56	166.00
293.92	155.00
294.29	166.00
294.65	162.00
295.02	162.00
295.38	160.00
295.75	159.00
296.11	167.00
296.48	161.00
296.84	164.00
297.21	163.00
297.57	161.00
297.94	158.00
298.30	169.00
298.67	162.00
299.04	163.00
299.40	159.00
299.77	168.00
300.13	167.00
300.50	162.00
300.86	161.00
301.23	160.00
301.59	166.00
301.96	163.00
302.32	166.00
302.69	160.00
303.05	164.00
303.42	164.00
303.78	167.00
304.14	159.00
304.51	166.00
304.87	160.00
305.24	161.00
305.60	163.00
305.97	159.00
306.33	165.00
306.70	161.00
307.06	162.00
307.43	163.00
307.79	160.00
308.16	170.00
308.52	167.00
308.88	158.00
309.25	169.00
309.61	158.00
309.98	164.00
310.34	162.00
310.71	160.00
311.07	166.00
311.44	162.00
311.80	166.00
312.16	165.00
312.53	161.00
312.89	162.00
313.26	161.00
313.62	162.00
313.98	164.00
314.35	162.00
314.71	160.00
315.08	167.00
315.44	160.00
315.80	163.00
316.17	161.00
316.53	167.00
316.90	159.00
317.26	163.00
317.62	168.00
317.99	157.00
318.35	164.00
318.72	165.00
319.08	164.00
319.44	167.00
319.81	164.00
320.17	163.00
320.53	159.00
320.90	163.00
321.26	165.00
321.62	165.00
321.99	157.00
322.35	162.00
322.72	164.00
323.08	164.00
323.44	164.00
323.81	158.00
324.17	163.00
324.53	164.00
324.90	163.00
325.26	165.00
325.62	162.00
325.99	160.00
326.35	162.00
326.71	164.00
327.08	163.00
327.44	161.00
327.80	161.00
328.16	161.00
328.53	167.00
328.89	166.00
329.25	159.00
329.62	157.00
329.98	166.00
330.34	166.00
330.71	161.00
331.07	162.00
331.43	162.00
331.79	164.00
332.16	159.00
332.52	160.00
332.88	164.00
333.24	164.00
333.61	161.00
333.97	164.00
334.33	163.00
334.70	163.00
335.06	164.00
335.42	161.00
335.78	166.00
336.15	162.00
336.51	162.00
336.87	165.00
337.23	159.00
337.60	163.00
337.96	160.00
338.32	164.00
338.68	165.00
339.04	162.00
339.41	162.00
339.77	162.00
340.13	163.00
340.49	166.00
340.86	162.00
341.22	166.00
341.58	163.00
341.94	162.00
342.30	165.00
342.67	165.00
343.03	165.00
343.39	160.00
343.75	160.00
344.11	163.00
344.48	162.00
344.84	165.00
345.20	161.00
345.56	162.00
345.92	164.00
346.28	160.00
346.65	162.00
347.01	163.00
347.37	163.00
347.73	165.00
348.09	165.00
348.45	162.00
348.82	161.00
349.18	162.00
349.54	160.00
349.90	162.00
350.26	165.00
350.62	160.00
350.98	168.00
351.35	161.00
351.71	165.00
352.07	162.00
352.43	163.00
352.79	161.00
353.15	161.00
353.51	163.00
353.87	164.00
354.24	160.00
354.60	163.00
354.96	161.00
355.32	161.00
355.68	167.00
356.04	162.00
356.40	159.00
356.76	164.00
357.12	160.00
357.48	159.00
357.85	164.00
358.21	162.00
358.57	166.00
358.93	167.00
359.29	164.00
359.65	163.00
360.01	158.00
360.37	162.00
360.73	165.00
361.09	163.00
361.45	162.00
361.81	169.00
362.17	163.00
362.53	160.00
362.89	164.00
363.25	164.00
363.62	165.00
363.98	164.00
364.34	161.00
364.70	165.00
365.06	163.00
365.42	166.00
365.78	164.00
366.14	160.00
366.50	162.00
366.86	164.00
367.22	163.00
367.58	160.00
367.94	168.00
368.30	162.00
368.66	160.00
369.02	165.00
369.38	163.00
369.74	165.00
370.10	164.00
370.46	160.00
370.82	160.00
371.18	162.00
371.54	166.00
371.90	163.00
372.26	163.00
372.62	163.00
372.98	163.00
373.33	162.00
373.69	162.00
374.05	160.00
374.41	163.00
374.77	160.00
375.13	166.00
375.49	165.00
375.85	164.00
376.21	166.00
376.57	165.00
376.93	162.00
377.29	165.00
377.65	165.00
378.01	163.00
378.37	165.00
378.73	168.00
379.08	163.00
379.44	168.00
379.80	165.00
380.16	162.00
380.52	161.00
380.88	166.00
381.24	160.00
381.60	160.00
381.96	164.00
382.32	164.00
382.67	162.00
383.03	166.00
383.39	167.00
383.75	165.00
384.11	166.00
384.47	166.00
384.83	162.00
385.19	166.00
385.54	167.00
385.90	164.00
386.26	164.00
386.62	167.00
386.98	172.00
387.34	165.00
387.70	165.00
388.05	168.00
388.41	168.00
388.77	167.00
389.13	167.00
389.49	168.00
389.85	169.00
390.20	168.00
390.56	172.00
390.92	172.00
391.28	168.00
391.64	171.00
391.99	163.00
392.35	174.00
392.71	166.00
393.07	172.00
393.43	176.00
393.78	170.00
394.14	175.00
394.50	172.00
394.86	173.00
395.22	176.00
395.57	167.00
395.93	172.00
396.29	175.00
396.65	171.00
397.00	172.00
397.36	175.00
397.72	175.00
398.08	178.00
398.43	173.00
398.79	174.00
399.15	174.00
399.51	181.00
399.86	180.00
400.22	174.00
400.58	175.00
400.94	179.00
401.29	176.00
401.65	175.00
402.01	175.00
402.37	183.00
402.72	177.00
403.08	173.00
403.44	174.00
403.79	185.00
404.15	181.00
404.51	178.00
404.86	180.00
405.22	186.00
405.58	182.00
405.94	184.00
406.29	187.00
406.65	182.00
407.01	182.00
407.36	183.00
407.72	184.00
408.08	177.00
408.43	185.00
408.79	187.00
409.15	189.00
409.50	192.00
409.86	192.00
410.22	188.00
410.57	192.00
410.93	197.00
411.29	190.00
411.64	190.00
412.00	192.00
412.35	190.00
412.71	187.00
413.07	196.00
413.42	198.00
413.78	192.00
414.14	195.00
414.49	201.00
414.85	194.00
415.20	196.00
415.56	191.00
415.92	204.00
416.27	197.00
416.63	199.00
416.98	200.00
417.34	199.00
417.70	202.00
418.05	201.00
418.41	205.00
418.76	205.00
419.12	204.00
419.47	202.00
419.83	201.00
420.19	210.00
420.54	207.00
420.90	210.00
421.25	214.00
421.61	215.00
421.96	218.00
422.32	219.00
422.67	219.00
423.03	213.00
423.39	213.00
423.74	216.00
424.10	222.00
424.45	221.00
424.81	215.00
425.16	222.00
425.52	221.00
425.87	219.00
426.23	220.00
426.58	225.00
426.94	225.00
427.29	230.00
427.65	226.00
428.00	229.00
428.36	226.00
428.71	229.00
429.07	230.00
429.42	232.00
429.78	233.00
430.13	240.00
430.49	235.00
430.84	239.00
431.19	236.00
431.55	238.00
431.90	239.00
432.26	234.00
432.61	242.00
432.97	242.00
433.32	242.00
433.68	244.00
434.03	248.00
434.39	253.00
434.74	246.00
435.09	250.00
435.45	249.00
435.80	256.00
436.16	250.00
436.51	259.00
436.86	261.00
437.22	261.00
437.57	258.00
437.93	257.00
438.28	258.00
438.63	256.00
438.99	258.00
439.34	274.00
439.70	269.00
440.05	266.00
440.40	269.00
440.76	265.00
441.11	269.00
441.47	278.00
441.82	275.00
442.17	284.00
442.53	275.00
442.88	286.00
443.23	286.00
443.59	276.00
443.94	290.00
444.29	285.00
444.65	291.00
445.00	284.00
445.35	283.00
445.71	287.00
446.06	298.00
446.41	289.00
446.77	297.00
447.12	299.00
447.47	297.00
447.83	304.00
448.18	305.00
448.53	301.00
448.89	295.00
449.24	302.00
449.59	315.00
449.94	306.00
450.30	303.00
450.65	314.00
451.00	325.00
451.36	318.00
451.71	319.00
452.06	325.00
452.41	321.00
452.77	320.00
453.12	335.00
453.47	330.00
453.82	338.00
454.18	323.00
454.53	329.00
454.88	327.00
455.23	345.00
455.59	326.00
455.94	337.00
456.29	347.00
456.64	342.00
457.00	336.00
457.35	346.00
457.70	337.00
458.05	353.00
458.40	358.00
458.76	352.00
459.11	362.00
459.46	362.00
459.81	358.00
460.16	364.00
460.52	372.00
460.87	362.00
461.22	375.00
461.57	374.00
461.92	369.00
462.28	375.00
462.63	397.00
462.98	383.00
463.33	382.00
463.68	396.00
464.03	393.00
464.38	396.00
464.74	399.00
465.09	403.00
465.44	411.00
465.79	416.00
466.14	405.00
466.49	417.00
466.84	413.00
467.20	435.00
467.55	430.00
467.90	441.00
468.25	430.00
468.60	443.00
468.95	436.00
469.30	444.00
469.65	445.00
470.00	449.00
470.36	458.00
470.71	471.00
471.06	478.00
471.41	460.00
471.76	476.00
472.11	481.00
472.46	491.00
472.81	487.00
473.16	508.00
473.51	504.00
473.86	502.00
474.21	519.00
474.56	526.00
474.91	532.00
475.26	527.00
475.62	536.00
475.97	541.00
476.32	537.00
476.67	547.00
477.02	558.00
477.37	566.00
477.72	565.00
478.07	576.00
478.42	580.00
478.77	588.00
479.12	593.00
479.47	593.00
479.82	612.00
480.17	608.00
480.52	626.00
480.87	633.00
481.22	615.00
481.57	635.00
481.92	627.00
482.27	637.00
482.62	661.00
482.97	650.00
483.32	654.00
483.67	651.00
484.02	668.00
484.36	675.00
484.71	684.00
485.06	682.00
485.41	693.00
485.76	700.00
486.11	692.00
486.46	703.00
486.81	720.00
487.16	710.00
487.51	709.00
487.86	728.00
488.21	729.00
488.56	736.00
488.91	748.00
489.25	753.00
489.60	757.00
489.95	771.00
490.30	780.00
490.65	784.00
491.00	787.00
491.35	777.00
491.70	787.00
492.05	802.00
492.39	805.00
492.74	810.00
493.09	803.00
493.44	829.00
493.79	834.00
494.14	834.00
494.49	835.00
494.83	837.00
495.18	866.00
495.53	851.00
495.88	877.00
496.23	875.00
496.58	867.00
496.92	885.00
497.27	896.00
497.62	918.00
497.97	900.00
498.32	922.00
498.67	928.00
499.01	934.00
499.36	931.00
499.71	953.00
500.06	959.00
500.41	960.00
500.75	957.00
501.10	972.00
501.45	972.00
501.80	973.00
502.14	980.00
502.49	975.00
502.84	993.00
503.19	1012.00
503.53	1012.00
503.88	1007.00
504.23	1013.00
504.58	1026.00
504.92	1027.00
505.27	1030.00
505.62	1035.00
505.97	1050.00
506.31	1056.00
506.66	1053.00
507.01	1048.00
507.36	1070.00
507.70	1068.00
508.05	1066.00
508.40	1056.00
508.74	1070.00
509.09	1077.00
509.44	1068.00
509.79	1067.00
510.13	1094.00
510.48	1069.00
510.83	1074.00
511.17	1087.00
511.52	1098.00
511.87	1086.00
512.21	1092.00
512.56	1076.00
512.91	1103.00
513.25	1114.00
513.60	1108.00
513.95	1091.00
514.29	1116.00
514.64	1101.00
514.98	1113.00
515.33	1121.00
515.68	1095.00
516.02	1129.00
516.37	1098.00
516.72	1109.00
517.06	1147.00
517.41	1133.00
517.75	1120.00
518.10	1134.00
518.45	1144.00
518.79	1123.00
519.14	1140.00
519.48	1144.00
519.83	1136.00
520.18	1130.00
520.52	1145.00
520.87	1136.00
521.21	1147.00
521.56	1123.00
521.90	1131.00
522.25	1140.00
522.60	1136.00
522.94	1147.00
523.29	1140.00
523.63	1141.00
523.98	1129.00
524.32	1135.00
524.67	1160.00
525.01	1132.00
525.36	1144.00
525.70	1152.00
526.05	1142.00
526.39	1144.00
526.74	1122.00
527.08	1113.00
527.43	1141.00
527.77	1139.00
528.12	1122.00
528.46	1127.00
528.81	1122.00
529.15	1132.00
529.50	1115.00
529.84	1133.00
530.19	1122.00
530.53	1117.00
530.88	1101.00
531.22	1099.00
531.57	1121.00
531.91	1098.00
532.26	1085.00
532.60	1077.00
532.94	1085.00
533.29	1079.00
533.63	1073.00
533.98	1058.00
534.32	1063.00
534.67	1062.00
535.01	1056.00
535.35	1043.00
535.70	1033.00
536.04	1040.00
536.39	1045.00
536.73	1025.00
537.07	1025.00
537.42	1013.00
537.76	1006.00
538.11	997.00
538.45	994.00
538.79	983.00
539.14	976.00
539.48	968.00
539.82	962.00
540.17	969.00
540.51	957.00
540.85	961.00
541.20	931.00
541.54	966.00
541.89	955.00
542.23	936.00
542.57	937.00
542.92	939.00
543.26	926.00
543.60	918.00
543.94	942.00
544.29	920.00
544.63	923.00
544.97	931.00
545.32	920.00
545.66	926.00
546.00	928.00
546.35	921.00
546.69	927.00
547.03	954.00
547.37	933.00
547.72	942.00
548.06	931.00
548.40	953.00
548.75	943.00
549.09	956.00
549.43	953.00
549.77	949.00
550.12	950.00
550.46	963.00
550.80	953.00
551.14	968.00
551.49	979.00
551.83	999.00
552.17	971.00
552.51	989.00
552.85	997.00
553.20	1016.00
553.54	1014.00
553.88	1033.00
554.22	1033.00
554.56	1049.00
554.91	1043.00
555.25	1060.00
555.59	1074.00
555.93	1081.00
556.27	1090.00
556.62	1078.00
556.96	1099.00
557.30	1116.00
557.64	1120.00
557.98	1131.00
558.32	1136.00
558.67	1149.00
559.01	1167.00
559.35	1183.00
559.69	1164.00
560.03	1191.00
560.37	1225.00
560.71	1203.00
561.05	1220.00
561.40	1211.00
561.74	1219.00
562.08	1241.00
562.42	1248.00
562.76	1259.00
563.10	1248.00
563.44	1266.00
563.78	1271.00
564.12	1287.00
564.46	1291.00
564.81	1303.00
565.15	1288.00
565.49	1286.00
565.83	1300.00
566.17	1298.00
566.51	1317.00
566.85	1301.00
567.19	1323.00
567.53	1327.00
567.87	1321.00
568.21	1334.00
568.55	1314.00
568.89	1327.00
569.23	1329.00
569.57	1314.00
569.91	1323.00
570.25	1329.00
570.59	1330.00
570.93	1328.00
571.27	1317.00
571.61	1325.00
571.95	1319.00
572.29	1332.00
572.63	1318.00
572.97	1314.00
573.31	1317.00
573.65	1277.00
573.99	1317.00
574.33	1292.00
574.67	1295.00
575.01	1283.00
575.35	1275.00
575.69	1274.00
576.03	1279.00
576.37	1284.00
576.71	1276.00
577.05	1261.00
577.39	1255.00
577.73	1239.00
578.06	1251.00
578.40	1254.00
578.74	1250.00
579.08	1224.00
579.42	1229.00
579.76	1213.00
580.10	1208.00
580.44	1193.00
580.78	1213.00
581.12	1189.00
581.45	1191.00
581.79	1175.00
582.13	1158.00
582.47	1174.00
582.81	1143.00
583.15	1147.00
583.49	1148.00
583.83	1134.00
584.16	1133.00
584.50	1131.00
584.84	1124.00
585.18	1119.00
585.52	1111.00
585.86	1110.00
586.19	1104.00
586.53	1107.00
586.87	1100.00
587.21	1092.00
587.55	1082.00
587.88	1082.00
588.22	1082.00
588.56	1072.00
588.90	1076.00
589.24	1047.00
589.57	1044.00
589.91	1069.00
590.25	1031.00
590.59	1010.00
590.92	1029.00
591.26	1020.00
591.60	1008.00
591.94	990.00
592.27	984.00
592.61	980.00
592.95	952.00
593.29	960.00
593.62	960.00
593.96	943.00
594.30	917.00
594.64	922.00
594.97	898.00
595.31	903.00
595.65	892.00
595.98	878.00
596.32	861.00
596.66	850.00
597.00	852.00
597.33	827.00
597.67	808.00
598.01	801.00
598.34	777.00
598.68	767.00
599.02	747.00
599.35	731.00
599.69	712.00
600.03	713.00
600.36	695.00
600.70	673.00
601.03	671.00
601.37	661.00
601.71	655.00
602.04	628.00
602.38	621.00
602.72	608.00
603.05	603.00
603.39	590.00
603.72	586.00
604.06	569.00
604.40	577.00
604.73	545.00
605.07	530.00
605.40	532.00
605.74	514.00
606.08	508.00
606.41	497.00
606.75	475.00
607.08	481.00
607.42	455.00
607.75	447.00
608.09	437.00
608.42	430.00
608.76	415.00
609.10	411.00
609.43	397.00
609.77	388.00
610.10	379.00
610.44	364.00
610.77	348.00
611.11	349.00
611.44	343.00
611.78	334.00
612.11	320.00
612.45	315.00
612.78	303.00
613.12	302.00
613.45	296.00
613.79	286.00
614.12	279.00
614.46	273.00
614.79	269.00
615.13	266.00
615.46	255.00
615.79	248.00
616.13	256.00
616.46	252.00
616.80	244.00
617.13	235.00
617.47	234.00
617.80	230.00
618.13	228.00
618.47	227.00
618.80	223.00
619.14	224.00
619.47	218.00
619.81	214.00
620.14	218.00
620.47	210.00
620.81	211.00
621.14	206.00
621.47	209.00
621.81	213.00
622.14	203.00
622.48	203.00
622.81	203.00
623.14	205.00
623.48	200.00
623.81	195.00
624.14	200.00
624.48	198.00
624.81	193.00
625.14	200.00
625.48	199.00
625.81	198.00
626.14	199.00
626.48	196.00
626.81	190.00
627.14	193.00
627.48	195.00
627.81	194.00
628.14	204.00
628.47	201.00
628.81	206.00
629.14	197.00
629.47	203.00
629.81	204.00
630.14	204.00
630.47	204.00
630.80	207.00
631.14	212.00
631.47	211.00
631.80	216.00
632.13	220.00
632.47	219.00
632.80	226.00
633.13	224.00
633.46	225.00
