SpectraSuite Data File
++++++++++++++++++++++++++++++++++++
Date: Sun May 03 17:11:36 BST 2015
User: mpfc3
Dark Spectrum Present: Yes
Reference Spectrum Present: Yes
Number of Sampled Component Spectra: 1
Spectrometers: USB2E3636
Integration Time (usec): 30000 (USB2E3636)
Spectra Averaged: 100 (USB2E3636)
Boxcar Smoothing: 0 (USB2E3636)
Correct for Electrical Dark: No (USB2E3636)
Strobe/Lamp Enabled: No (USB2E3636)
Correct for Detector Non-linearity: No (USB2E3636)
Correct for Stray Light: No (USB2E3636)
Number of Pixels in Processed Spectrum: 2048
>>>>>Begin Processed Spectral Data<<<<<
180.28	0.000
180.65	239.004
181.02	203.968
181.39	226.357
181.77	214.685
182.14	200.347
182.51	223.333
182.88	269.585
183.25	197.213
183.63	205.859
184.00	192.578
184.37	258.051
184.74	172.258
185.11	254.726
185.49	222.481
185.86	300.000
186.23	211.832
186.60	185.252
186.97	200.000
187.35	179.739
187.72	200.735
188.09	240.845
188.46	223.629
188.83	176.125
189.20	-212.687
189.58	-19.525
189.95	-19.503
190.32	-18.849
190.69	-16.472
191.06	-17.333
191.43	-22.455
191.81	-21.152
192.18	-20.481
192.55	-18.112
192.92	-24.079
193.29	-16.531
193.66	-19.431
194.03	-22.095
194.41	-21.550
194.78	-20.090
195.15	-19.634
195.52	-17.846
195.89	-19.716
196.26	-18.988
196.63	-18.726
197.01	-19.817
197.38	-18.147
197.75	-21.120
198.12	-18.693
198.49	-21.488
198.86	-21.041
199.23	-22.240
199.60	-21.984
199.98	-20.544
200.35	-20.054
200.72	-18.296
201.09	-19.934
201.46	-21.725
201.83	-16.747
202.20	-19.672
202.57	-17.201
202.94	-22.427
203.31	-21.291
203.69	-21.098
204.06	-21.345
204.43	-22.998
204.80	-25.057
205.17	-20.557
205.54	-22.160
205.91	-22.501
206.28	-22.395
206.65	-19.738
207.02	-21.926
207.39	-23.418
207.76	-20.828
208.14	-21.717
208.51	-23.064
208.88	-21.855
209.25	-25.073
209.62	-21.631
209.99	-23.776
210.36	-24.753
210.73	-20.759
211.10	-25.745
211.47	-20.976
211.84	-17.399
212.21	-26.815
212.58	-21.049
212.95	-21.841
213.32	-20.526
213.69	-18.787
214.06	-23.197
214.43	-22.011
214.80	-19.410
215.17	-25.476
215.55	-20.730
215.92	-24.483
216.29	-17.692
216.66	-19.905
217.03	-22.626
217.40	-24.878
217.77	-25.402
218.14	-22.114
218.51	-24.594
218.88	-23.605
219.25	-25.707
219.62	-27.482
219.99	-28.422
220.36	-24.159
220.73	-25.928
221.10	-22.177
221.47	-20.434
221.84	-19.045
222.21	-23.834
222.58	-18.962
222.95	-25.663
223.32	-26.732
223.69	-27.929
224.06	-23.214
224.43	-27.902
224.80	-24.805
225.17	-18.781
225.54	-21.975
225.91	-29.675
226.27	-22.043
226.64	-27.902
227.01	-23.036
227.38	-29.060
227.75	-20.219
228.12	-23.747
228.49	-24.042
228.86	-22.098
229.23	-24.066
229.60	-24.831
229.97	-29.759
230.34	-27.747
230.71	-28.673
231.08	-29.720
231.45	-23.813
231.82	-23.529
232.19	-28.562
232.56	-32.020
232.93	-30.764
233.30	-27.432
233.66	-30.441
234.03	-21.012
234.40	-27.946
234.77	-25.636
235.14	-34.165
235.51	-25.142
235.88	-26.907
236.25	-26.594
236.62	-28.234
236.99	-31.670
237.36	-24.791
237.73	-30.543
238.09	-27.813
238.46	-30.615
238.83	-35.469
239.20	-26.144
239.57	-25.238
239.94	-27.061
240.31	-31.891
240.68	-28.277
241.05	-28.497
241.41	-27.652
241.78	-27.007
242.15	-38.185
242.52	-19.739
242.89	-26.462
243.26	-32.714
243.63	-26.857
244.00	-28.812
244.36	-27.880
244.73	-34.860
245.10	-24.582
245.47	-23.816
245.84	-31.163
246.21	-29.366
246.58	-29.878
246.94	-26.662
247.31	-29.216
247.68	-35.188
248.05	-31.108
248.42	-28.438
248.79	-34.385
249.15	-32.028
249.52	-35.837
249.89	-27.150
250.26	-27.782
250.63	-34.322
251.00	-30.553
251.36	-32.119
251.73	-34.093
252.10	-26.206
252.47	-37.591
252.84	-29.398
253.20	-27.393
253.57	-31.295
253.94	-30.483
254.31	-29.822
254.68	-41.667
255.05	-36.977
255.41	-37.720
255.78	-24.715
256.15	-38.929
256.52	-33.109
256.88	-28.896
257.25	-33.691
257.62	-32.626
257.99	-28.981
258.36	-33.029
258.72	-35.957
259.09	-33.521
259.46	-31.782
259.83	-38.107
260.19	-27.244
260.56	-31.206
260.93	-42.338
261.30	-30.039
261.67	-30.428
262.03	-31.732
262.40	-28.695
262.77	-36.697
263.14	-37.069
263.50	-36.333
263.87	-33.160
264.24	-28.943
264.61	-35.073
264.97	-35.341
265.34	-32.643
265.71	-38.693
266.07	-30.573
266.44	-34.701
266.81	-30.612
267.18	-31.713
267.54	-31.384
267.91	-34.180
268.28	-36.449
268.64	-35.696
269.01	-38.917
269.38	-36.714
269.75	-34.779
270.11	-27.331
270.48	-28.368
270.85	-42.629
271.21	-36.387
271.58	-34.775
271.95	-33.115
272.32	-32.280
272.68	-33.879
273.05	-30.189
273.42	-28.772
273.78	-34.281
274.15	-39.205
274.52	-34.828
274.88	-37.331
275.25	-31.130
275.62	-39.729
275.98	-32.229
276.35	-33.092
276.72	-32.969
277.08	-30.744
277.45	-40.901
277.82	-38.203
278.18	-36.285
278.55	-40.959
278.92	-33.982
279.28	-33.418
279.65	-30.152
280.01	-31.967
280.38	-36.653
280.75	-33.009
281.11	-29.535
281.48	-28.062
281.85	-28.515
282.21	-34.639
282.58	-35.126
282.95	-36.842
283.31	-28.337
283.68	-25.689
284.04	-38.065
284.41	-40.349
284.78	-37.478
285.14	-33.569
285.51	-33.588
285.87	-33.333
286.24	-33.946
286.61	-30.756
286.97	-34.837
287.34	-32.757
287.70	-37.500
288.07	-29.258
288.44	-31.046
288.80	-29.690
289.17	-33.361
289.53	-31.347
289.90	-33.389
290.26	-27.524
290.63	-31.103
291.00	-36.728
291.36	-32.239
291.73	-35.536
292.09	-30.926
292.46	-31.086
292.82	-29.556
293.19	-30.742
293.56	-34.359
293.92	-35.891
294.29	-36.587
294.65	-40.901
295.02	-35.864
295.38	-38.543
295.75	-29.167
296.11	-30.223
296.48	-28.311
296.84	-37.778
297.21	-28.928
297.57	-35.145
297.94	-39.209
298.30	-30.495
298.67	-28.458
299.04	-32.995
299.40	-31.512
299.77	-28.205
300.13	-29.045
300.50	-29.716
300.86	-31.679
301.23	-31.510
301.59	-37.742
301.96	-30.902
302.32	-29.547
302.69	-33.989
303.05	-30.801
303.42	-26.087
303.78	-34.525
304.14	-29.627
304.51	-24.458
304.87	-27.969
305.24	-25.895
305.60	-32.256
305.97	-28.837
306.33	-26.677
306.70	-32.591
307.06	-30.287
307.43	-33.307
307.79	-31.984
308.16	-26.336
308.52	-27.384
308.88	-27.052
309.25	-27.019
309.61	-25.721
309.98	-30.162
310.34	-27.749
310.71	-31.645
311.07	-31.768
311.44	-21.620
311.80	-25.369
312.16	-30.684
312.53	-25.332
312.89	-24.278
313.26	-31.050
313.62	-27.653
313.98	-29.112
314.35	-23.343
314.71	-25.379
315.08	-22.956
315.44	-24.693
315.80	-22.107
316.17	-25.468
316.53	-22.508
316.90	-23.774
317.26	-21.869
317.62	-25.086
317.99	-22.655
318.35	-25.120
318.72	-25.681
319.08	-23.236
319.44	-26.266
319.81	-29.155
320.17	-23.940
320.53	-25.764
320.90	-23.860
321.26	-24.140
321.62	-20.585
321.99	-26.365
322.35	-22.120
322.72	-22.587
323.08	-19.542
323.44	-25.581
323.81	-22.866
324.17	-22.690
324.53	-21.158
324.90	-20.661
325.26	-23.128
325.62	-26.507
325.99	-21.668
326.35	-19.674
326.71	-18.363
327.08	-21.852
327.44	-17.149
327.80	-18.534
328.16	-13.625
328.53	-25.351
328.89	-18.743
329.25	-20.067
329.62	-17.694
329.98	-15.286
330.34	-13.965
330.71	-18.884
331.07	-18.358
331.43	-13.312
331.79	-15.203
332.16	-15.203
332.52	-19.067
332.88	-14.279
333.24	-17.893
333.61	-15.260
333.97	-12.143
334.33	-12.122
334.70	-13.907
335.06	-15.612
335.42	-15.930
335.78	-13.371
336.15	-12.680
336.51	-15.139
336.87	-14.070
337.23	-12.670
337.60	-14.156
337.96	-12.486
338.32	-10.417
338.68	-10.204
339.04	-11.792
339.41	-10.569
339.77	-13.756
340.13	-11.103
340.49	-10.475
340.86	-11.199
341.22	-10.488
341.58	-11.635
341.94	-10.263
342.30	-10.679
342.67	-10.388
343.03	-9.169
343.39	-10.602
343.75	-8.952
344.11	-9.974
344.48	-8.702
344.84	-9.289
345.20	-8.891
345.56	-8.042
345.92	-10.910
346.28	-7.058
346.65	-7.549
347.01	-8.391
347.37	-7.441
347.73	-7.862
348.09	-8.331
348.45	-6.483
348.82	-7.122
349.18	-8.767
349.54	-6.866
349.90	-8.153
350.26	-7.161
350.62	-8.512
350.98	-8.014
351.35	-6.878
351.71	-7.531
352.07	-5.969
352.43	-6.866
352.79	-5.350
353.15	-6.626
353.51	-4.854
353.87	-7.196
354.24	-5.908
354.60	-6.061
354.96	-5.541
355.32	-4.274
355.68	-4.604
356.04	-5.490
356.40	-6.025
356.76	-4.803
357.12	-4.295
357.48	-4.857
357.85	-3.644
358.21	-4.930
358.57	-6.014
358.93	-5.227
359.29	-5.636
359.65	-4.176
360.01	-3.898
360.37	-4.474
360.73	-4.623
361.09	-3.206
361.45	-4.450
361.81	-4.599
362.17	-4.157
362.53	-3.361
362.89	-3.671
363.25	-5.161
363.62	-2.794
363.98	-3.618
364.34	-3.729
364.70	-3.493
365.06	-4.035
365.42	-3.488
365.78	-4.815
366.14	-3.374
366.50	-3.752
366.86	-3.075
367.22	-4.421
367.58	-3.821
367.94	-2.373
368.30	-2.734
368.66	-1.689
369.02	-3.121
369.38	-2.191
369.74	-2.996
370.10	-2.883
370.46	-2.618
370.82	-2.856
371.18	-2.153
371.54	-3.030
371.90	-1.965
372.26	-2.174
372.62	-2.405
372.98	-1.714
373.33	-2.370
373.69	-2.592
374.05	-1.746
374.41	-2.091
374.77	-1.220
375.13	-2.206
375.49	-1.792
375.85	-2.319
376.21	-1.501
376.57	-1.497
376.93	-1.925
377.29	-1.358
377.65	-0.864
378.01	-2.082
378.37	-1.649
378.73	-1.466
379.08	-1.410
379.44	-0.770
379.80	-0.775
380.16	-1.014
380.52	-1.265
380.88	-1.198
381.24	-0.909
381.60	-1.301
381.96	-0.317
382.32	-0.555
382.67	-0.929
383.03	0.038
383.39	-0.576
383.75	-0.067
384.11	-0.081
384.47	-0.399
384.83	-0.029
385.19	-0.115
385.54	0.617
385.90	0.106
386.26	0.362
386.62	0.417
386.98	0.704
387.34	0.726
387.70	0.885
388.05	0.984
388.41	0.628
388.77	1.387
389.13	1.266
389.49	0.742
389.85	1.593
390.20	1.518
390.56	1.479
390.92	1.150
391.28	1.568
391.64	1.986
391.99	1.825
392.35	2.028
392.71	1.765
393.07	2.564
393.43	2.376
393.78	2.284
394.14	2.419
394.50	2.827
394.86	2.908
395.22	2.777
395.57	2.668
395.93	3.176
396.29	3.308
396.65	3.295
397.00	3.479
397.36	3.733
397.72	3.772
398.08	4.076
398.43	3.858
398.79	4.187
399.15	4.312
399.51	4.234
399.86	4.441
400.22	4.403
400.58	4.643
400.94	4.512
401.29	5.020
401.65	4.790
402.01	5.070
402.37	5.237
402.72	4.910
403.08	5.562
403.44	5.442
403.79	5.740
404.15	5.422
404.51	5.947
404.86	5.809
405.22	6.359
405.58	6.149
405.94	6.415
406.29	6.389
406.65	6.562
407.01	6.310
407.36	6.871
407.72	6.723
408.08	7.078
408.43	6.986
408.79	7.162
409.15	7.475
409.50	7.334
409.86	7.379
410.22	7.437
410.57	7.711
410.93	8.086
411.29	7.796
411.64	8.230
412.00	8.387
412.35	8.449
412.71	8.590
413.07	8.698
413.42	8.720
413.78	8.840
414.14	9.032
414.49	9.163
414.85	9.055
415.20	9.152
415.56	9.544
415.92	9.546
416.27	9.742
416.63	9.919
416.98	9.882
417.34	10.022
417.70	9.998
418.05	10.047
418.41	10.333
418.76	10.342
419.12	10.433
419.47	10.481
419.83	10.751
420.19	10.915
420.54	10.974
420.90	11.032
421.25	11.211
421.61	11.328
421.96	11.317
422.32	11.519
422.67	11.602
423.03	11.804
423.39	11.786
423.74	12.211
424.10	12.063
424.45	12.219
424.81	12.248
425.16	12.357
425.52	12.693
425.87	12.646
426.23	12.825
426.58	12.693
426.94	12.842
427.29	13.038
427.65	13.196
428.00	13.321
428.36	13.280
428.71	13.441
429.07	13.592
429.42	13.720
429.78	13.790
430.13	13.977
430.49	13.987
430.84	14.197
431.19	14.123
431.55	14.280
431.90	14.289
432.26	14.500
432.61	14.564
432.97	14.704
433.32	14.746
433.68	14.810
434.03	14.977
434.39	15.148
434.74	15.356
435.09	15.461
435.45	15.350
435.80	15.461
436.16	15.744
436.51	15.798
436.86	15.827
437.22	15.859
437.57	15.927
437.93	16.051
438.28	16.326
438.63	16.226
438.99	16.415
439.34	16.476
439.70	16.659
440.05	16.731
440.40	16.842
440.76	16.923
441.11	16.985
441.47	17.005
441.82	17.116
442.17	17.220
442.53	17.318
442.88	17.363
443.23	17.648
443.59	17.672
443.94	17.719
444.29	17.918
444.65	17.839
445.00	17.828
445.35	18.123
445.71	18.114
446.06	18.139
446.41	18.221
446.77	18.259
447.12	18.425
447.47	18.613
447.83	18.606
448.18	18.677
448.53	18.925
448.89	18.891
449.24	18.895
449.59	18.963
449.94	19.172
450.30	19.190
450.65	19.289
451.00	19.432
451.36	19.620
451.71	19.553
452.06	19.632
452.41	19.794
452.77	19.795
453.12	19.938
453.47	20.185
453.82	20.137
454.18	20.336
454.53	20.255
454.88	20.369
455.23	20.517
455.59	20.504
455.94	20.612
456.29	20.739
456.64	20.712
457.00	20.935
457.35	21.147
457.70	21.117
458.05	21.196
458.40	21.268
458.76	21.313
459.11	21.511
459.46	21.550
459.81	21.560
460.16	21.714
460.52	21.793
460.87	21.940
461.22	22.004
461.57	22.110
461.92	22.131
462.28	22.210
462.63	22.308
462.98	22.379
463.33	22.523
463.68	22.545
464.03	22.644
464.38	22.676
464.74	22.773
465.09	22.935
465.44	22.947
465.79	22.956
466.14	23.093
466.49	23.083
466.84	23.262
467.20	23.268
467.55	23.338
467.90	23.465
468.25	23.773
468.60	23.646
468.95	23.690
469.30	23.692
469.65	23.813
470.00	23.888
470.36	23.947
470.71	24.033
471.06	24.018
471.41	24.174
471.76	24.215
472.11	24.121
472.46	24.282
472.81	24.242
473.16	24.307
473.51	24.437
473.86	24.363
474.21	24.558
474.56	24.445
474.91	24.495
475.26	24.560
475.62	24.659
475.97	24.617
476.32	24.729
476.67	24.657
477.02	24.643
477.37	24.724
477.72	24.735
478.07	24.622
478.42	24.697
478.77	24.685
479.12	24.700
479.47	24.743
479.82	24.794
480.17	24.816
480.52	24.687
480.87	24.771
481.22	24.870
481.57	24.883
481.92	24.900
482.27	24.813
482.62	24.887
482.97	24.900
483.32	24.888
483.67	24.886
484.02	24.957
484.36	24.805
484.71	24.906
485.06	24.977
485.41	24.964
485.76	25.003
486.11	25.117
486.46	25.101
486.81	25.119
487.16	25.153
487.51	25.170
487.86	25.159
488.21	25.243
488.56	25.373
488.91	25.444
489.25	25.488
489.60	25.515
489.95	25.566
490.30	25.697
490.65	25.683
491.00	25.787
491.35	25.836
491.70	25.852
492.05	25.984
492.39	26.138
492.74	26.109
493.09	26.183
493.44	26.233
493.79	26.373
494.14	26.420
494.49	26.520
494.83	26.574
495.18	26.624
495.53	26.723
495.88	26.796
496.23	26.834
496.58	27.044
496.92	26.997
497.27	27.094
497.62	27.239
497.97	27.188
498.32	27.345
498.67	27.384
499.01	27.445
499.36	27.500
499.71	27.611
500.06	27.651
500.41	27.780
500.75	27.760
501.10	27.823
501.45	27.927
501.80	28.015
502.14	28.033
502.49	28.026
502.84	28.159
503.19	28.198
503.53	28.266
503.88	28.356
504.23	28.327
504.58	28.372
504.92	28.408
505.27	28.452
505.62	28.512
505.97	28.557
506.31	28.606
506.66	28.645
507.01	28.682
507.36	28.598
507.70	28.702
508.05	28.648
508.40	28.634
508.74	28.636
509.09	28.658
509.44	28.581
509.79	28.581
510.13	28.536
510.48	28.577
510.83	28.533
511.17	28.416
511.52	28.480
511.87	28.418
512.21	28.448
512.56	28.480
512.91	28.478
513.25	28.511
513.60	28.499
513.95	28.555
514.29	28.551
514.64	28.621
514.98	28.621
515.33	28.696
515.68	28.714
516.02	28.727
516.37	28.800
516.72	28.801
517.06	28.865
517.41	28.880
517.75	28.899
518.10	28.967
518.45	28.976
518.79	28.944
519.14	29.084
519.48	29.012
519.83	28.986
520.18	29.024
520.52	29.044
520.87	29.130
521.21	29.124
521.56	29.107
521.90	29.162
522.25	29.089
522.60	29.057
522.94	29.127
523.29	29.154
523.63	29.106
523.98	29.058
524.32	29.110
524.67	29.047
525.01	29.046
525.36	28.997
525.70	28.959
526.05	28.947
526.39	28.935
526.74	28.823
527.08	28.737
527.43	28.733
527.77	28.685
528.12	28.601
528.46	28.553
528.81	28.422
529.15	28.456
529.50	28.333
529.84	28.277
530.19	28.120
530.53	28.008
530.88	27.924
531.22	27.854
531.57	27.711
531.91	27.567
532.26	27.433
532.60	27.279
532.94	27.089
533.29	27.060
533.63	26.836
533.98	26.692
534.32	26.522
534.67	26.399
535.01	26.175
535.35	26.007
535.70	25.767
536.04	25.619
536.39	25.394
536.73	25.202
537.07	24.975
537.42	24.793
537.76	24.604
538.11	24.409
538.45	24.184
538.79	23.973
539.14	23.807
539.48	23.609
539.82	23.427
540.17	23.230
540.51	23.075
540.85	22.942
541.20	22.716
541.54	22.517
541.89	22.447
542.23	22.272
542.57	22.176
542.92	22.098
543.26	21.927
543.60	21.827
543.94	21.801
544.29	21.708
544.63	21.655
544.97	21.577
545.32	21.558
545.66	21.511
546.00	21.524
546.35	21.514
546.69	21.524
547.03	21.527
547.37	21.552
547.72	21.560
548.06	21.579
548.40	21.633
548.75	21.703
549.09	21.731
549.43	21.740
549.77	21.828
550.12	21.887
550.46	21.983
550.80	22.031
551.14	22.155
551.49	22.219
551.83	22.433
552.17	22.481
552.51	22.647
552.85	22.828
553.20	22.895
553.54	23.129
553.88	23.284
554.22	23.389
554.56	23.547
554.91	23.806
555.25	23.996
555.59	24.193
555.93	24.423
556.27	24.653
556.62	24.861
556.96	25.142
557.30	25.295
557.64	25.455
557.98	25.828
558.32	25.916
558.67	26.205
559.01	26.442
559.35	26.657
559.69	26.905
560.03	27.108
560.37	27.342
560.71	27.581
561.05	27.733
561.40	27.911
561.74	28.143
562.08	28.338
562.42	28.550
562.76	28.728
563.10	28.879
563.44	29.075
563.78	29.214
564.12	29.422
564.46	29.582
564.81	29.688
565.15	29.766
565.49	29.968
565.83	30.039
566.17	30.108
566.51	30.244
566.85	30.329
567.19	30.464
567.53	30.441
567.87	30.556
568.21	30.551
568.55	30.534
568.89	30.590
569.23	30.626
569.57	30.676
569.91	30.665
570.25	30.681
570.59	30.638
570.93	30.609
571.27	30.572
571.61	30.599
571.95	30.525
572.29	30.480
572.63	30.414
572.97	30.342
573.31	30.325
573.65	30.320
573.99	30.154
574.33	30.081
574.67	29.992
575.01	29.890
575.35	29.757
575.69	29.701
576.03	29.540
576.37	29.454
576.71	29.320
577.05	29.163
577.39	29.069
577.73	28.897
578.06	28.765
578.40	28.600
578.74	28.426
579.08	28.276
579.42	28.126
579.76	27.960
580.10	27.748
580.44	27.619
580.78	27.457
581.12	27.227
581.45	27.052
581.79	26.900
582.13	26.718
582.47	26.496
582.81	26.338
583.15	26.140
583.49	26.045
583.83	25.859
584.16	25.679
584.50	25.521
584.84	25.307
585.18	25.242
585.52	25.121
585.86	25.016
586.19	24.812
586.53	24.680
586.87	24.580
587.21	24.393
587.55	24.280
587.88	24.147
588.22	23.986
588.56	23.776
588.90	23.610
589.24	23.480
589.57	23.284
589.91	23.070
590.25	22.840
590.59	22.691
590.92	22.471
591.26	22.266
591.60	22.031
591.94	21.841
592.27	21.584
592.61	21.347
592.95	21.133
593.29	20.897
593.62	20.634
593.96	20.340
594.30	20.007
594.64	19.758
594.97	19.464
595.31	19.121
595.65	18.775
595.98	18.400
596.32	18.031
596.66	17.605
597.00	17.257
597.33	16.889
597.67	16.414
598.01	15.994
598.34	15.564
598.68	15.214
599.02	14.774
599.35	14.350
599.69	14.011
600.03	13.627
600.36	13.254
600.70	12.959
601.03	12.631
601.37	12.352
601.71	12.081
602.04	11.849
602.38	11.594
602.72	11.359
603.05	11.089
603.39	10.869
603.72	10.593
604.06	10.406
604.40	10.119
604.73	9.872
605.07	9.630
605.40	9.368
605.74	9.147
606.08	8.834
606.41	8.609
606.75	8.383
607.08	8.081
607.42	7.865
607.75	7.598
608.09	7.344
608.42	7.115
608.76	6.835
609.10	6.606
609.43	6.313
609.77	6.111
610.10	5.859
610.44	5.662
610.77	5.383
611.11	5.178
611.44	4.956
611.78	4.711
612.11	4.501
612.45	4.323
612.78	4.124
613.12	3.934
613.45	3.735
613.79	3.538
614.12	3.395
614.46	3.218
614.79	3.034
615.13	2.906
615.46	2.758
615.79	2.632
616.13	2.502
616.46	2.413
616.80	2.302
617.13	2.196
617.47	2.136
617.80	2.034
618.13	1.958
618.47	1.896
618.80	1.811
619.14	1.766
619.47	1.680
619.81	1.621
620.14	1.565
620.47	1.520
620.81	1.447
621.14	1.413
621.47	1.388
621.81	1.343
622.14	1.301
622.48	1.246
622.81	1.196
623.14	1.186
623.48	1.175
623.81	1.146
624.14	1.091
624.48	1.055
624.81	1.042
625.14	1.055
625.48	1.037
625.81	0.994
626.14	1.008
626.48	1.000
626.81	1.016
627.14	1.012
627.48	1.001
627.81	1.019
628.14	1.028
628.47	1.067
628.81	1.073
629.14	1.110
629.47	1.129
629.81	1.159
630.14	1.171
630.47	1.207
630.80	1.288
631.14	1.341
631.47	1.343
631.80	1.446
632.13	1.502
