SpectraSuite Data File
++++++++++++++++++++++++++++++++++++
Date: Sun May 03 17:16:13 BST 2015
User: mpfc3
Dark Spectrum Present: Yes
Reference Spectrum Present: Yes
Number of Sampled Component Spectra: 1
Spectrometers: USB2E3636
Integration Time (usec): 30000 (USB2E3636)
Spectra Averaged: 100 (USB2E3636)
Boxcar Smoothing: 0 (USB2E3636)
Correct for Electrical Dark: No (USB2E3636)
Strobe/Lamp Enabled: No (USB2E3636)
Correct for Detector Non-linearity: No (USB2E3636)
Correct for Stray Light: No (USB2E3636)
Number of Pixels in Processed Spectrum: 2048
>>>>>Begin Processed Spectral Data<<<<<
180.28	0.000
180.65	331.950
181.02	282.937
181.39	306.589
181.77	266.084
182.14	269.444
182.51	335.417
182.88	357.604
183.25	274.216
183.63	286.719
184.00	287.891
184.37	323.729
184.74	248.387
185.11	348.756
185.49	296.899
185.86	409.195
186.23	293.511
186.60	265.468
186.97	281.369
187.35	254.575
187.72	275.368
188.09	336.620
188.46	327.848
188.83	264.014
189.20	-279.851
189.58	-31.504
189.95	-33.387
190.32	-31.014
190.69	-28.072
191.06	-33.477
191.43	-33.847
191.81	-31.617
192.18	-31.513
192.55	-30.077
192.92	-32.985
193.29	-31.267
193.66	-28.127
194.03	-31.260
194.41	-31.666
194.78	-38.215
195.15	-33.278
195.52	-28.511
195.89	-30.862
196.26	-31.284
196.63	-31.410
197.01	-30.397
197.38	-27.793
197.75	-31.933
198.12	-28.870
198.49	-36.757
198.86	-35.124
199.23	-31.104
199.60	-34.216
199.98	-33.815
200.35	-32.846
200.72	-32.004
201.09	-32.724
201.46	-33.886
201.83	-30.435
202.20	-28.886
202.57	-34.513
202.94	-33.613
203.31	-35.190
203.69	-32.762
204.06	-34.062
204.43	-35.412
204.80	-36.782
205.17	-30.195
205.54	-34.247
205.91	-34.951
206.28	-33.851
206.65	-31.204
207.02	-34.844
207.39	-37.966
207.76	-35.181
208.14	-33.165
208.51	-36.518
208.88	-35.362
209.25	-36.380
209.62	-33.182
209.99	-34.100
210.36	-34.282
210.73	-31.455
211.10	-36.949
211.47	-34.922
211.84	-30.912
212.21	-37.912
212.58	-37.033
212.95	-32.933
213.32	-38.012
213.69	-34.747
214.06	-37.019
214.43	-38.192
214.80	-34.690
215.17	-36.096
215.55	-38.985
215.92	-40.263
216.29	-31.810
216.66	-33.116
217.03	-36.930
217.40	-38.142
217.77	-38.381
218.14	-32.017
218.51	-38.577
218.88	-36.297
219.25	-41.324
219.62	-43.882
219.99	-38.060
220.36	-36.426
220.73	-37.196
221.10	-34.750
221.47	-35.313
221.84	-37.021
222.21	-35.208
222.58	-35.003
222.95	-39.237
223.32	-37.908
223.69	-46.195
224.06	-35.778
224.43	-41.005
224.80	-38.377
225.17	-32.836
225.54	-38.153
225.91	-44.377
226.27	-36.199
226.64	-40.040
227.01	-36.700
227.38	-38.121
227.75	-32.067
228.12	-41.425
228.49	-40.611
228.86	-36.984
229.23	-40.262
229.60	-43.995
229.97	-40.550
230.34	-41.827
230.71	-45.351
231.08	-46.590
231.45	-40.299
231.82	-43.137
232.19	-41.286
232.56	-48.997
232.93	-43.969
233.30	-42.547
233.66	-47.578
234.03	-38.211
234.40	-40.741
234.77	-40.678
235.14	-50.945
235.51	-39.986
235.88	-44.550
236.25	-41.261
236.62	-43.102
236.99	-47.317
237.36	-43.715
237.73	-49.849
238.09	-39.844
238.46	-46.331
238.83	-53.279
239.20	-45.461
239.57	-41.746
239.94	-47.702
240.31	-45.821
240.68	-44.256
241.05	-44.930
241.41	-45.282
241.78	-43.661
242.15	-47.887
242.52	-37.070
242.89	-43.778
243.26	-46.543
243.63	-45.311
244.00	-39.809
244.36	-43.947
244.73	-50.388
245.10	-43.709
245.47	-39.136
245.84	-53.256
246.21	-46.368
246.58	-43.902
246.94	-47.050
247.31	-42.973
247.68	-50.157
248.05	-47.344
248.42	-53.380
248.79	-48.220
249.15	-51.605
249.52	-55.265
249.89	-45.550
250.26	-47.393
250.63	-50.441
251.00	-46.220
251.36	-51.407
251.73	-49.018
252.10	-42.045
252.47	-52.546
252.84	-45.973
253.20	-44.125
253.57	-50.442
253.94	-51.148
254.31	-48.412
254.68	-53.722
255.05	-54.227
255.41	-53.814
255.78	-46.844
256.15	-63.158
256.52	-60.000
256.88	-46.280
257.25	-48.803
257.62	-45.840
257.99	-52.064
258.36	-52.531
258.72	-55.841
259.09	-48.151
259.46	-46.688
259.83	-54.104
260.19	-44.028
260.56	-48.385
260.93	-60.762
261.30	-41.556
261.67	-51.645
262.03	-51.890
262.40	-54.245
262.77	-53.461
263.14	-57.672
263.50	-48.000
263.87	-55.584
264.24	-46.767
264.61	-53.670
264.97	-50.763
265.34	-49.627
265.71	-57.180
266.07	-47.134
266.44	-47.416
266.81	-49.143
267.18	-47.694
267.54	-48.847
267.91	-47.705
268.28	-56.604
268.64	-52.544
269.01	-52.417
269.38	-52.473
269.75	-51.543
270.11	-48.473
270.48	-45.087
270.85	-55.151
271.21	-49.076
271.58	-50.083
271.95	-45.984
272.32	-52.519
272.68	-56.724
273.05	-49.828
273.42	-53.421
273.78	-48.913
274.15	-62.963
274.52	-54.741
274.88	-52.111
275.25	-54.142
275.62	-60.724
275.98	-50.485
276.35	-46.538
276.72	-51.135
277.08	-52.464
277.45	-58.925
277.82	-60.889
278.18	-54.772
278.55	-66.513
278.92	-54.956
279.28	-51.871
279.65	-53.041
280.01	-50.879
280.38	-49.224
280.75	-57.611
281.11	-45.907
281.48	-43.488
281.85	-43.050
282.21	-51.958
282.58	-56.375
282.95	-54.649
283.31	-47.830
283.68	-43.760
284.04	-57.505
284.41	-56.245
284.78	-54.562
285.14	-54.947
285.51	-48.601
285.87	-44.935
286.24	-52.174
286.61	-50.540
286.97	-52.966
287.34	-56.785
287.70	-55.435
288.07	-50.937
288.44	-49.791
288.80	-52.926
289.17	-53.821
289.53	-53.972
289.90	-48.201
290.26	-48.779
290.63	-53.953
291.00	-52.588
291.36	-55.143
291.73	-55.089
292.09	-52.251
292.46	-48.161
292.82	-47.702
293.19	-52.838
293.56	-51.664
293.92	-51.662
294.29	-51.025
294.65	-57.297
295.02	-54.538
295.38	-58.999
295.75	-50.425
296.11	-49.794
296.48	-48.427
296.84	-54.359
297.21	-44.883
297.57	-53.550
297.94	-57.194
298.30	-52.879
298.67	-46.979
299.04	-56.007
299.40	-49.485
299.77	-48.157
300.13	-46.330
300.50	-44.073
300.86	-47.974
301.23	-52.245
301.59	-55.771
301.96	-44.000
302.32	-49.053
302.69	-49.877
303.05	-42.729
303.42	-46.148
303.78	-49.797
304.14	-49.087
304.51	-47.446
304.87	-44.688
305.24	-39.909
305.60	-51.972
305.97	-45.039
306.33	-47.858
306.70	-43.164
307.06	-43.127
307.43	-51.235
307.79	-43.891
308.16	-48.257
308.52	-43.555
308.88	-45.745
309.25	-44.906
309.61	-44.789
309.98	-43.774
310.34	-45.849
310.71	-41.630
311.07	-45.618
311.44	-36.009
311.80	-42.847
312.16	-43.120
312.53	-47.120
312.89	-38.171
313.26	-49.772
313.62	-40.794
313.98	-44.032
314.35	-39.337
314.71	-42.394
315.08	-43.902
315.44	-43.827
315.80	-40.152
316.17	-39.001
316.53	-35.593
316.90	-41.417
317.26	-37.170
317.62	-39.068
317.99	-37.450
318.35	-40.657
318.72	-43.597
319.08	-33.422
319.44	-42.269
319.81	-40.599
320.17	-35.474
320.53	-36.174
320.90	-38.476
321.26	-35.397
321.62	-35.012
321.99	-46.138
322.35	-36.887
322.72	-35.705
323.08	-36.116
323.44	-39.975
323.81	-40.187
324.17	-37.085
324.53	-33.688
324.90	-32.704
325.26	-34.392
325.62	-40.467
325.99	-34.880
326.35	-27.174
326.71	-32.462
327.08	-33.001
327.44	-31.841
327.80	-31.970
328.16	-27.918
328.53	-37.822
328.89	-32.538
329.25	-36.863
329.62	-25.792
329.98	-23.524
330.34	-25.968
330.71	-28.201
331.07	-29.286
331.43	-25.464
331.79	-26.911
332.16	-24.727
332.52	-28.578
332.88	-23.165
333.24	-26.703
333.61	-22.300
333.97	-24.414
334.33	-23.417
334.70	-22.972
335.06	-22.689
335.42	-22.335
335.78	-23.539
336.15	-21.576
336.51	-25.259
336.87	-21.357
337.23	-17.949
337.60	-19.290
337.96	-20.221
338.32	-18.951
338.68	-19.406
339.04	-18.881
339.41	-18.104
339.77	-19.439
340.13	-20.077
340.49	-18.610
340.86	-17.509
341.22	-16.656
341.58	-19.166
341.94	-17.640
342.30	-16.272
342.67	-15.269
343.03	-17.387
343.39	-17.363
343.75	-15.791
344.11	-12.811
344.48	-16.623
344.84	-15.936
345.20	-15.902
345.56	-13.739
345.92	-16.699
346.28	-13.587
346.65	-14.694
347.01	-14.011
347.37	-14.063
347.73	-13.342
348.09	-14.351
348.45	-13.261
348.82	-12.917
349.18	-13.553
349.54	-12.990
349.90	-12.370
350.26	-12.357
350.62	-12.581
350.98	-12.415
351.35	-12.066
351.71	-12.322
352.07	-12.070
352.43	-11.130
352.79	-10.362
353.15	-10.275
353.51	-10.745
353.87	-10.556
354.24	-9.940
354.60	-9.310
354.96	-10.215
355.32	-10.050
355.68	-8.596
356.04	-9.659
356.40	-9.606
356.76	-9.203
357.12	-8.717
357.48	-9.715
357.85	-7.982
358.21	-8.885
358.57	-9.143
358.93	-9.435
359.29	-8.597
359.65	-8.434
360.01	-7.893
360.37	-7.720
360.73	-7.695
361.09	-7.794
361.45	-8.160
361.81	-8.472
362.17	-7.338
362.53	-7.063
362.89	-6.867
363.25	-7.479
363.62	-6.599
363.98	-6.869
364.34	-6.751
364.70	-6.474
365.06	-7.110
365.42	-5.970
365.78	-6.541
366.14	-7.381
366.50	-6.180
366.86	-6.304
367.22	-6.733
367.58	-6.550
367.94	-6.131
368.30	-6.220
368.66	-4.923
369.02	-4.843
369.38	-5.113
369.74	-5.479
370.10	-4.985
370.46	-5.134
370.82	-5.361
371.18	-4.019
371.54	-4.918
371.90	-4.815
372.26	-4.648
372.62	-4.925
372.98	-4.332
373.33	-5.423
373.69	-5.152
374.05	-3.723
374.41	-4.452
374.77	-3.640
375.13	-4.127
375.49	-4.277
375.85	-4.023
376.21	-3.551
376.57	-3.361
376.93	-3.750
377.29	-3.399
377.65	-2.700
378.01	-4.190
378.37	-3.401
378.73	-3.402
379.08	-3.024
379.44	-2.928
379.80	-2.947
380.16	-2.569
380.52	-2.973
380.88	-2.812
381.24	-2.995
381.60	-2.862
381.96	-2.093
382.32	-2.027
382.67	-2.634
383.03	-2.151
383.39	-2.123
383.75	-1.579
384.11	-1.966
384.47	-2.273
384.83	-1.842
385.19	-1.541
385.54	-0.911
385.90	-1.632
386.26	-1.191
386.62	-0.990
386.98	-1.103
387.34	-0.914
387.70	-0.925
388.05	-0.705
388.41	-0.790
388.77	-0.326
389.13	0.044
389.49	-0.279
389.85	-0.187
390.20	0.455
390.56	0.097
390.92	0.000
391.28	-0.073
391.64	1.011
391.99	0.368
392.35	0.651
392.71	0.800
393.07	1.133
393.43	1.534
393.78	1.409
394.14	1.411
394.50	1.391
394.86	1.726
395.22	1.469
395.57	1.337
395.93	1.823
396.29	1.934
396.65	2.265
397.00	2.199
397.36	2.493
397.72	2.762
398.08	2.938
398.43	2.750
398.79	2.702
399.15	3.332
399.51	3.364
399.86	3.487
400.22	3.613
400.58	3.572
400.94	3.631
401.29	3.893
401.65	3.912
402.01	4.040
402.37	4.073
402.72	4.192
403.08	4.453
403.44	4.441
403.79	4.543
404.15	4.718
404.51	4.801
404.86	4.745
405.22	5.189
405.58	5.247
405.94	5.259
406.29	5.533
406.65	5.549
407.01	5.591
407.36	5.945
407.72	5.851
408.08	6.183
408.43	6.016
408.79	6.252
409.15	6.556
409.50	6.455
409.86	6.285
410.22	6.733
410.57	6.960
410.93	7.242
411.29	7.123
411.64	7.363
412.00	7.652
412.35	7.726
412.71	7.647
413.07	7.953
413.42	7.836
413.78	7.872
414.14	8.207
414.49	8.098
414.85	8.126
415.20	8.458
415.56	8.788
415.92	8.644
416.27	8.750
416.63	9.081
416.98	9.124
417.34	9.221
417.70	9.347
418.05	9.439
418.41	9.575
418.76	9.725
419.12	9.570
419.47	9.805
419.83	9.918
420.19	10.330
420.54	10.183
420.90	10.219
421.25	10.577
421.61	10.483
421.96	10.688
422.32	10.933
422.67	11.029
423.03	10.899
423.39	11.162
423.74	11.441
424.10	11.556
424.45	11.611
424.81	11.787
425.16	11.922
425.52	12.069
425.87	12.058
426.23	12.170
426.58	12.145
426.94	12.241
427.29	12.464
427.65	12.441
428.00	12.613
428.36	12.694
428.71	12.892
429.07	12.973
429.42	13.095
429.78	13.279
430.13	13.295
430.49	13.337
430.84	13.619
431.19	13.706
431.55	13.724
431.90	13.763
432.26	13.812
432.61	14.071
432.97	13.962
433.32	14.226
433.68	14.315
434.03	14.209
434.39	14.448
434.74	14.682
435.09	14.788
435.45	14.796
435.80	14.850
436.16	15.219
436.51	15.310
436.86	15.201
437.22	15.234
437.57	15.421
437.93	15.421
438.28	15.827
438.63	15.637
438.99	15.778
439.34	15.901
439.70	16.235
440.05	16.063
440.40	16.266
440.76	16.230
441.11	16.286
441.47	16.483
441.82	16.622
442.17	16.623
442.53	16.745
442.88	16.994
443.23	17.168
443.59	17.069
443.94	17.220
444.29	17.275
444.65	17.411
445.00	17.371
445.35	17.717
445.71	17.631
446.06	17.794
446.41	17.814
446.77	17.812
447.12	18.092
447.47	18.093
447.83	18.007
448.18	18.061
448.53	18.283
448.89	18.271
449.24	18.455
449.59	18.376
449.94	18.642
450.30	18.686
450.65	18.887
451.00	18.916
451.36	18.914
451.71	18.976
452.06	19.238
452.41	19.255
452.77	19.282
453.12	19.397
453.47	19.551
453.82	19.683
454.18	19.787
454.53	19.884
454.88	19.788
455.23	19.960
455.59	19.902
455.94	20.164
456.29	20.323
456.64	20.294
457.00	20.352
457.35	20.653
457.70	20.626
458.05	20.815
458.40	20.864
458.76	20.942
459.11	20.995
459.46	21.223
459.81	21.157
460.16	21.212
460.52	21.312
460.87	21.358
461.22	21.616
461.57	21.664
461.92	21.659
462.28	21.737
462.63	21.983
462.98	22.069
463.33	22.048
463.68	22.194
464.03	22.284
464.38	22.267
464.74	22.262
465.09	22.384
465.44	22.559
465.79	22.606
466.14	22.619
466.49	22.776
466.84	22.798
467.20	22.882
467.55	22.863
467.90	22.956
468.25	23.104
468.60	23.162
468.95	23.267
469.30	23.314
469.65	23.403
470.00	23.401
470.36	23.530
470.71	23.629
471.06	23.635
471.41	23.721
471.76	23.777
472.11	23.835
472.46	23.834
472.81	23.846
473.16	23.851
473.51	23.997
473.86	24.066
474.21	24.183
474.56	24.093
474.91	24.222
475.26	24.237
475.62	24.232
475.97	24.243
476.32	24.247
476.67	24.243
477.02	24.260
477.37	24.386
477.72	24.339
478.07	24.396
478.42	24.364
478.77	24.345
479.12	24.374
479.47	24.375
479.82	24.462
480.17	24.396
480.52	24.390
480.87	24.442
481.22	24.423
481.57	24.527
481.92	24.501
482.27	24.462
482.62	24.584
482.97	24.556
483.32	24.546
483.67	24.548
484.02	24.642
484.36	24.577
484.71	24.547
485.06	24.630
485.41	24.706
485.76	24.734
486.11	24.751
486.46	24.802
486.81	24.802
487.16	24.827
487.51	24.858
487.86	24.932
488.21	24.998
488.56	25.086
488.91	25.187
489.25	25.147
489.60	25.208
489.95	25.293
490.30	25.294
490.65	25.445
491.00	25.542
491.35	25.495
491.70	25.657
492.05	25.725
492.39	25.813
492.74	25.816
493.09	25.886
493.44	25.960
493.79	26.050
494.14	26.152
494.49	26.160
494.83	26.273
495.18	26.402
495.53	26.464
495.88	26.495
496.23	26.609
496.58	26.634
496.92	26.683
497.27	26.817
497.62	26.911
497.97	26.965
498.32	27.009
498.67	27.057
499.01	27.176
499.36	27.230
499.71	27.235
500.06	27.338
500.41	27.450
500.75	27.369
501.10	27.578
501.45	27.590
501.80	27.634
502.14	27.722
502.49	27.791
502.84	27.860
503.19	27.857
503.53	27.964
503.88	28.055
504.23	28.058
504.58	28.151
504.92	28.131
505.27	28.222
505.62	28.267
505.97	28.262
506.31	28.281
506.66	28.388
507.01	28.382
507.36	28.315
507.70	28.356
508.05	28.367
508.40	28.327
508.74	28.360
509.09	28.301
509.44	28.267
509.79	28.324
510.13	28.247
510.48	28.249
510.83	28.271
511.17	28.128
511.52	28.117
511.87	28.214
512.21	28.162
512.56	28.184
512.91	28.246
513.25	28.206
513.60	28.236
513.95	28.299
514.29	28.249
514.64	28.372
514.98	28.404
515.33	28.410
515.68	28.439
516.02	28.503
516.37	28.490
516.72	28.532
517.06	28.552
517.41	28.654
517.75	28.579
518.10	28.646
518.45	28.691
518.79	28.676
519.14	28.807
519.48	28.764
519.83	28.731
520.18	28.775
520.52	28.745
520.87	28.839
521.21	28.829
521.56	28.805
521.90	28.877
522.25	28.818
522.60	28.835
522.94	28.851
523.29	28.920
523.63	28.817
523.98	28.831
524.32	28.787
524.67	28.792
525.01	28.721
525.36	28.748
525.70	28.719
526.05	28.694
526.39	28.616
526.74	28.551
527.08	28.508
527.43	28.480
527.77	28.420
528.12	28.371
528.46	28.270
528.81	28.177
529.15	28.080
529.50	28.070
529.84	27.948
530.19	27.930
530.53	27.742
530.88	27.712
531.22	27.537
531.57	27.485
531.91	27.309
532.26	27.195
532.60	27.046
532.94	26.898
533.29	26.759
533.63	26.593
533.98	26.476
534.32	26.279
534.67	26.119
535.01	25.957
535.35	25.793
535.70	25.522
536.04	25.418
536.39	25.179
536.73	25.002
537.07	24.784
537.42	24.548
537.76	24.379
538.11	24.143
538.45	23.958
538.79	23.734
539.14	23.591
539.48	23.384
539.82	23.213
540.17	23.056
540.51	22.854
540.85	22.710
541.20	22.506
541.54	22.269
541.89	22.273
542.23	22.038
542.57	21.877
542.92	21.887
543.26	21.741
543.60	21.679
543.94	21.626
544.29	21.570
544.63	21.447
544.97	21.380
545.32	21.331
545.66	21.318
546.00	21.359
546.35	21.348
546.69	21.335
547.03	21.317
547.37	21.400
547.72	21.362
548.06	21.379
548.40	21.433
548.75	21.491
549.09	21.525
549.43	21.558
549.77	21.609
550.12	21.705
550.46	21.792
550.80	21.796
551.14	21.962
551.49	22.067
551.83	22.198
552.17	22.249
552.51	22.412
552.85	22.612
553.20	22.660
553.54	22.848
553.88	22.987
554.22	23.177
554.56	23.341
554.91	23.572
555.25	23.818
555.59	23.970
555.93	24.162
556.27	24.415
556.62	24.635
556.96	24.847
557.30	25.072
557.64	25.207
557.98	25.547
558.32	25.728
558.67	26.001
559.01	26.221
559.35	26.452
559.69	26.612
560.03	26.825
560.37	27.101
560.71	27.360
561.05	27.554
561.40	27.638
561.74	27.911
562.08	28.117
562.42	28.339
562.76	28.516
563.10	28.643
563.44	28.856
563.78	28.973
564.12	29.139
564.46	29.317
564.81	29.415
565.15	29.576
565.49	29.689
565.83	29.765
566.17	29.891
566.51	29.980
566.85	30.025
567.19	30.147
567.53	30.193
567.87	30.280
568.21	30.272
568.55	30.301
568.89	30.372
569.23	30.350
569.57	30.443
569.91	30.415
570.25	30.414
570.59	30.427
570.93	30.395
571.27	30.325
571.61	30.360
571.95	30.291
572.29	30.235
572.63	30.193
572.97	30.112
573.31	30.114
573.65	30.015
573.99	29.943
574.33	29.791
574.67	29.711
575.01	29.621
575.35	29.396
575.69	29.370
576.03	29.286
576.37	29.218
576.71	29.110
577.05	28.965
577.39	28.754
577.73	28.755
578.06	28.546
578.40	28.365
578.74	28.205
579.08	28.020
579.42	27.911
579.76	27.714
580.10	27.556
580.44	27.363
580.78	27.183
581.12	26.998
581.45	26.815
581.79	26.595
582.13	26.461
582.47	26.238
582.81	26.090
583.15	25.929
583.49	25.778
583.83	25.640
584.16	25.384
584.50	25.330
584.84	25.161
585.18	25.015
585.52	24.895
585.86	24.802
586.19	24.538
586.53	24.498
586.87	24.366
587.21	24.181
587.55	24.052
587.88	23.894
588.22	23.719
588.56	23.577
588.90	23.422
589.24	23.234
589.57	23.013
589.91	22.926
590.25	22.637
590.59	22.453
590.92	22.288
591.26	22.075
591.60	21.846
591.94	21.659
592.27	21.450
592.61	21.148
592.95	20.914
593.29	20.645
593.62	20.466
593.96	20.134
594.30	19.829
594.64	19.534
594.97	19.270
595.31	18.915
595.65	18.620
595.98	18.208
596.32	17.855
596.66	17.468
597.00	17.065
597.33	16.665
597.67	16.217
598.01	15.830
598.34	15.412
598.68	15.020
599.02	14.626
599.35	14.188
599.69	13.849
600.03	13.453
600.36	13.129
600.70	12.844
601.03	12.506
601.37	12.223
601.71	11.967
602.04	11.710
602.38	11.428
602.72	11.202
603.05	10.958
603.39	10.715
603.72	10.483
604.06	10.210
604.40	10.007
604.73	9.714
605.07	9.508
605.40	9.249
605.74	9.002
606.08	8.769
606.41	8.501
606.75	8.272
607.08	7.973
607.42	7.722
607.75	7.516
608.09	7.241
608.42	6.976
608.76	6.712
609.10	6.475
609.43	6.251
609.77	6.006
610.10	5.780
610.44	5.538
610.77	5.279
611.11	5.066
611.44	4.855
611.78	4.623
612.11	4.411
612.45	4.230
612.78	4.012
613.12	3.834
613.45	3.627
613.79	3.463
614.12	3.298
614.46	3.101
614.79	2.977
615.13	2.816
615.46	2.684
615.79	2.557
616.13	2.447
616.46	2.335
616.80	2.245
617.13	2.102
617.47	2.043
617.80	1.978
618.13	1.905
618.47	1.804
618.80	1.727
619.14	1.665
619.47	1.598
619.81	1.525
620.14	1.497
620.47	1.422
620.81	1.366
621.14	1.339
621.47	1.295
621.81	1.254
622.14	1.219
622.48	1.187
622.81	1.129
623.14	1.117
623.48	1.093
623.81	1.046
624.14	1.021
624.48	1.012
624.81	1.002
625.14	0.966
625.48	0.941
625.81	0.920
626.14	0.923
626.48	0.926
626.81	0.926
627.14	0.929
627.48	0.949
627.81	0.934
628.14	0.953
628.47	0.972
628.81	0.979
629.14	1.008
629.47	1.051
629.81	1.091
630.14	1.097
630.47	1.142
630.80	1.206
631.14	1.261
