SpectraSuite Data File
++++++++++++++++++++++++++++++++++++
Date: Sun May 03 17:21:21 BST 2015
User: mpfc3
Dark Spectrum Present: Yes
Reference Spectrum Present: Yes
Number of Sampled Component Spectra: 1
Spectrometers: USB2E3636
Integration Time (usec): 30000 (USB2E3636)
Spectra Averaged: 100 (USB2E3636)
Boxcar Smoothing: 0 (USB2E3636)
Correct for Electrical Dark: No (USB2E3636)
Strobe/Lamp Enabled: No (USB2E3636)
Correct for Detector Non-linearity: No (USB2E3636)
Correct for Stray Light: No (USB2E3636)
Number of Pixels in Processed Spectrum: 2048
>>>>>Begin Processed Spectral Data<<<<<
180.28	0.000
180.65	365.975
181.02	334.127
181.39	335.659
181.77	292.308
182.14	290.278
182.51	343.750
182.88	401.382
183.25	291.986
183.63	356.250
184.00	333.984
184.37	363.136
184.74	290.968
185.11	405.970
185.49	355.039
185.86	445.402
186.23	327.863
186.60	329.856
186.97	345.247
187.35	285.294
187.72	329.412
188.09	410.798
188.46	351.477
188.83	281.661
189.20	-324.627
189.58	-37.045
189.95	-38.520
190.32	-38.795
190.69	-32.733
191.06	-34.449
191.43	-40.892
191.81	-38.151
192.18	-41.016
192.55	-35.181
192.92	-36.614
193.29	-36.922
193.66	-34.246
194.03	-38.953
194.41	-38.318
194.78	-44.332
195.15	-37.604
195.52	-35.903
195.89	-37.592
196.26	-38.738
196.63	-37.507
197.01	-34.962
197.38	-36.185
197.75	-41.905
198.12	-37.065
198.49	-38.978
198.86	-38.801
199.23	-37.684
199.60	-40.868
199.98	-36.369
200.35	-37.615
200.72	-39.814
201.09	-38.649
201.46	-39.856
201.83	-38.916
202.20	-35.670
202.57	-38.496
202.94	-40.604
203.31	-38.665
203.69	-41.681
204.06	-42.465
204.43	-43.078
204.80	-42.529
205.17	-38.774
205.54	-40.963
205.91	-43.175
206.28	-42.257
206.65	-41.358
207.02	-39.717
207.39	-42.460
207.76	-43.232
208.14	-38.777
208.51	-40.023
208.88	-41.739
209.25	-43.117
209.62	-37.373
209.99	-45.133
210.36	-40.500
210.73	-40.598
211.10	-45.292
211.47	-40.035
211.84	-35.642
212.21	-44.631
212.58	-41.737
212.95	-37.107
213.32	-40.702
213.69	-38.693
214.06	-40.565
214.43	-40.036
214.80	-41.711
215.17	-46.225
215.55	-40.532
215.92	-44.396
216.29	-40.305
216.66	-38.211
217.03	-43.280
217.40	-43.826
217.77	-45.241
218.14	-41.252
218.51	-45.506
218.88	-43.041
219.25	-47.172
219.62	-45.740
219.99	-48.250
220.36	-47.323
220.73	-44.814
221.10	-38.242
221.47	-40.613
221.84	-43.118
222.21	-44.856
222.58	-42.099
222.95	-41.694
223.32	-44.118
223.69	-52.019
224.06	-42.857
224.43	-49.355
224.80	-45.325
225.17	-41.791
225.54	-45.159
225.91	-50.271
226.27	-49.451
226.64	-47.823
227.01	-45.017
227.38	-51.342
227.75	-40.309
228.12	-45.119
228.49	-45.354
228.86	-45.639
229.23	-44.262
229.60	-49.528
229.97	-53.814
230.34	-49.519
230.71	-53.229
231.08	-51.759
231.45	-47.693
231.82	-44.557
232.19	-47.234
232.56	-51.504
232.93	-50.107
233.30	-49.125
233.66	-55.242
234.03	-48.682
234.40	-45.387
234.77	-51.483
235.14	-59.184
235.51	-50.923
235.88	-43.324
236.25	-45.922
236.62	-47.248
236.99	-58.957
237.36	-50.000
237.73	-54.676
238.09	-50.602
238.46	-58.043
238.83	-58.271
239.20	-51.707
239.57	-50.330
239.94	-52.225
240.31	-53.226
240.68	-49.926
241.05	-52.184
241.41	-51.280
241.78	-51.913
242.15	-56.729
242.52	-45.254
242.89	-51.424
243.26	-56.283
243.63	-52.213
244.00	-48.387
244.36	-48.056
244.73	-57.376
245.10	-49.236
245.47	-48.468
245.84	-57.519
246.21	-54.482
246.58	-53.506
246.94	-52.054
247.31	-52.219
247.68	-58.150
248.05	-57.056
248.42	-54.235
248.79	-61.084
249.15	-52.623
249.52	-62.286
249.89	-51.832
250.26	-53.619
250.63	-62.791
251.00	-50.663
251.36	-60.513
251.73	-59.466
252.10	-46.868
252.47	-61.601
252.84	-53.792
253.20	-56.342
253.57	-56.476
253.94	-54.790
254.31	-56.313
254.68	-61.246
255.05	-62.596
255.41	-61.274
255.78	-54.221
256.15	-70.780
256.52	-66.639
256.88	-56.226
257.25	-57.803
257.62	-57.667
257.99	-53.665
258.36	-60.913
258.72	-64.706
259.09	-60.932
259.46	-57.019
259.83	-63.149
260.19	-52.615
260.56	-56.895
260.93	-71.479
261.30	-52.529
261.67	-61.678
262.03	-58.819
262.40	-59.591
262.77	-61.968
263.14	-60.345
263.50	-60.250
263.87	-59.567
264.24	-53.391
264.61	-54.160
264.97	-56.145
265.34	-61.226
265.71	-62.941
266.07	-56.369
266.44	-58.162
266.81	-55.918
267.18	-57.661
267.54	-59.802
267.91	-60.492
268.28	-64.065
268.64	-53.795
269.01	-59.250
269.38	-63.202
269.75	-63.970
270.11	-53.537
270.48	-54.517
270.85	-63.321
271.21	-62.437
271.58	-62.812
271.95	-53.607
272.32	-59.266
272.68	-63.017
273.05	-58.748
273.42	-60.841
273.78	-59.615
274.15	-68.744
274.52	-66.810
274.88	-65.034
275.25	-59.414
275.62	-71.674
275.98	-54.685
276.35	-54.106
276.72	-61.060
277.08	-55.054
277.45	-64.731
277.82	-68.330
278.18	-63.543
278.55	-72.417
278.92	-67.345
279.28	-60.544
279.65	-60.389
280.01	-61.004
280.38	-54.612
280.75	-62.301
281.11	-54.334
281.48	-51.163
281.85	-54.488
282.21	-54.569
282.58	-64.788
282.95	-65.789
283.31	-51.843
283.68	-55.267
284.04	-65.552
284.41	-70.306
284.78	-67.442
285.14	-64.399
285.51	-59.457
285.87	-58.905
286.24	-62.793
286.61	-58.354
286.97	-61.153
287.34	-63.872
287.70	-63.225
288.07	-53.545
288.44	-60.335
288.80	-55.766
289.17	-61.380
289.53	-64.508
289.90	-57.490
290.26	-54.235
290.63	-63.076
291.00	-58.264
291.36	-64.909
291.73	-63.125
292.09	-61.682
292.46	-63.485
292.82	-53.487
293.19	-60.699
293.56	-58.819
293.92	-65.388
294.29	-62.674
294.65	-60.360
295.02	-67.365
295.38	-66.374
295.75	-60.374
296.11	-56.565
296.48	-53.311
296.84	-64.872
297.21	-58.824
297.57	-64.242
297.94	-70.054
298.30	-50.933
298.67	-53.021
299.04	-62.267
299.40	-52.969
299.77	-53.125
300.13	-55.091
300.50	-64.441
300.86	-58.395
301.23	-56.653
301.59	-66.217
301.96	-54.588
302.32	-57.942
302.69	-59.869
303.05	-53.922
303.42	-52.555
303.78	-61.007
304.14	-58.459
304.51	-56.037
304.87	-52.734
305.24	-51.714
305.60	-57.571
305.97	-54.496
306.33	-56.669
306.70	-57.870
307.06	-48.565
307.43	-60.398
307.79	-54.241
308.16	-51.433
308.52	-53.547
308.88	-51.596
309.25	-50.491
309.61	-50.111
309.98	-49.497
310.34	-52.880
310.71	-49.633
311.07	-53.286
311.44	-48.518
311.80	-50.664
312.16	-52.024
312.53	-49.631
312.89	-46.424
313.26	-56.088
313.62	-52.635
313.98	-53.057
314.35	-45.317
314.71	-47.296
315.08	-48.494
315.44	-48.448
315.80	-43.251
316.17	-44.830
316.53	-43.729
316.90	-48.910
317.26	-46.716
317.62	-47.498
317.99	-45.839
318.35	-45.517
318.72	-51.839
319.08	-43.808
319.44	-46.253
319.81	-48.569
320.17	-42.893
320.53	-42.225
320.90	-42.598
321.26	-41.901
321.62	-39.863
321.99	-52.130
322.35	-38.971
322.72	-40.161
323.08	-40.012
323.44	-43.746
323.81	-45.545
324.17	-41.647
324.53	-40.307
324.90	-36.305
325.26	-39.485
325.62	-46.925
325.99	-38.520
326.35	-35.652
326.71	-40.534
327.08	-37.604
327.44	-36.319
327.80	-35.210
328.16	-31.414
328.53	-43.326
328.89	-36.903
329.25	-39.523
329.62	-30.634
329.98	-31.145
330.34	-30.081
330.71	-34.230
331.07	-34.871
331.43	-29.824
331.79	-29.008
332.16	-29.620
332.52	-31.413
332.88	-31.565
333.24	-30.563
333.61	-27.634
333.97	-28.632
334.33	-25.817
334.70	-26.366
335.06	-28.143
335.42	-26.226
335.78	-26.541
336.15	-24.854
336.51	-28.367
336.87	-27.674
337.23	-25.452
337.60	-24.273
337.96	-24.015
338.32	-24.344
338.68	-22.986
339.04	-22.871
339.41	-21.821
339.77	-22.904
340.13	-24.127
340.49	-20.746
340.86	-20.813
341.22	-20.416
341.58	-21.881
341.94	-20.334
342.30	-20.506
342.67	-19.712
343.03	-20.638
343.39	-21.328
343.75	-18.873
344.11	-18.690
344.48	-17.722
344.84	-19.507
345.20	-19.664
345.56	-16.588
345.92	-19.983
346.28	-16.072
346.65	-18.253
347.01	-17.150
347.37	-16.675
347.73	-15.672
348.09	-17.170
348.45	-14.715
348.82	-14.416
349.18	-16.752
349.54	-14.809
349.90	-14.444
350.26	-14.205
350.62	-15.116
350.98	-15.011
351.35	-14.762
351.71	-13.324
352.07	-13.050
352.43	-12.964
352.79	-12.237
353.15	-11.407
353.51	-12.985
353.87	-12.982
354.24	-11.637
354.60	-11.802
354.96	-10.945
355.32	-11.263
355.68	-10.659
356.04	-11.130
356.40	-11.397
356.76	-10.871
357.12	-10.610
357.48	-11.286
357.85	-10.631
358.21	-10.244
358.57	-11.399
358.93	-11.200
359.29	-10.767
359.65	-10.489
360.01	-10.184
360.37	-9.771
360.73	-9.516
361.09	-8.925
361.45	-10.047
361.81	-9.846
362.17	-9.124
362.53	-7.851
362.89	-8.532
363.25	-9.083
363.62	-7.697
363.98	-8.537
364.34	-8.289
364.70	-7.869
365.06	-8.647
365.42	-7.553
365.78	-8.066
366.14	-7.684
366.50	-8.206
366.86	-7.034
367.22	-7.419
367.58	-7.350
367.94	-7.493
368.30	-7.338
368.66	-6.301
369.02	-6.756
369.38	-6.150
369.74	-7.053
370.10	-6.616
370.46	-6.278
370.82	-6.188
371.18	-5.267
371.54	-5.774
371.90	-6.111
372.26	-5.644
372.62	-5.594
372.98	-5.455
373.33	-5.895
373.69	-5.968
374.05	-4.686
374.41	-5.703
374.77	-4.696
375.13	-5.166
375.49	-4.759
375.85	-5.332
376.21	-4.819
376.57	-4.980
376.93	-4.361
377.29	-3.911
377.65	-4.126
378.01	-4.842
378.37	-4.416
378.73	-3.908
379.08	-4.239
379.44	-3.480
379.80	-3.545
380.16	-3.142
380.52	-3.835
380.88	-3.969
381.24	-3.361
381.60	-3.800
381.96	-3.050
382.32	-3.128
382.67	-3.532
383.03	-2.799
383.39	-3.013
383.75	-2.461
384.11	-2.820
384.47	-2.890
384.83	-2.342
385.19	-1.999
385.54	-1.696
385.90	-2.399
386.26	-2.188
386.62	-1.905
386.98	-1.922
387.34	-1.411
387.70	-1.643
388.05	-1.463
388.41	-1.296
388.77	-1.138
389.13	-0.696
389.49	-0.971
389.85	-0.460
390.20	-0.393
390.56	-0.596
390.92	-0.494
391.28	-0.345
391.64	0.029
391.99	-0.123
392.35	-0.105
392.71	0.417
393.07	0.269
393.43	0.738
393.78	0.752
394.14	0.606
394.50	0.988
394.86	1.116
395.22	1.296
395.57	0.855
395.93	1.380
396.29	1.504
396.65	1.328
397.00	1.783
397.36	1.740
397.72	1.777
398.08	2.565
398.43	2.134
398.79	2.751
399.15	2.580
399.51	2.824
399.86	3.047
400.22	3.068
400.58	3.227
400.94	3.332
401.29	3.264
401.65	3.273
402.01	3.701
402.37	3.563
402.72	3.408
403.08	4.112
403.44	3.806
403.79	4.379
404.15	4.219
404.51	4.473
404.86	4.736
405.22	4.581
405.58	4.696
405.94	5.010
406.29	5.163
406.65	5.022
407.01	5.206
407.36	5.315
407.72	5.556
408.08	5.708
408.43	5.857
408.79	6.293
409.15	6.197
409.50	6.206
409.86	6.255
410.22	6.361
410.57	6.641
410.93	6.793
411.29	6.674
411.64	6.905
412.00	7.165
412.35	7.291
412.71	7.393
413.07	7.561
413.42	7.741
413.78	7.431
414.14	7.695
414.49	7.751
414.85	7.857
415.20	8.167
415.56	8.294
415.92	8.380
416.27	8.577
416.63	8.730
416.98	8.792
417.34	8.912
417.70	9.065
418.05	9.131
418.41	9.542
418.76	9.604
419.12	9.320
419.47	9.742
419.83	9.697
420.19	9.982
420.54	10.098
420.90	10.033
421.25	10.309
421.61	10.284
421.96	10.522
422.32	10.554
422.67	10.626
423.03	10.963
423.39	10.949
423.74	11.306
424.10	11.224
424.45	11.306
424.81	11.478
425.16	11.548
425.52	11.501
425.87	11.744
426.23	11.908
426.58	11.998
426.94	11.972
427.29	12.272
427.65	12.333
428.00	12.370
428.36	12.554
428.71	12.672
429.07	12.674
429.42	12.945
429.78	13.026
430.13	13.156
430.49	13.189
430.84	13.510
431.19	13.541
431.55	13.576
431.90	13.580
432.26	13.601
432.61	13.724
432.97	14.071
433.32	14.030
433.68	14.097
434.03	14.255
434.39	14.332
434.74	14.420
435.09	14.668
435.45	14.680
435.80	14.761
436.16	14.975
436.51	14.941
436.86	14.890
437.22	15.030
437.57	15.274
437.93	15.350
438.28	15.573
438.63	15.503
438.99	15.798
439.34	15.831
439.70	15.882
440.05	15.964
440.40	16.056
440.76	16.090
441.11	16.121
441.47	16.263
441.82	16.486
442.17	16.535
442.53	16.529
442.88	16.681
443.23	16.820
443.59	16.911
443.94	16.981
444.29	17.128
444.65	17.148
445.00	17.184
445.35	17.294
445.71	17.398
446.06	17.553
446.41	17.479
446.77	17.544
447.12	17.915
447.47	17.815
447.83	17.765
448.18	18.060
448.53	18.099
448.89	18.164
449.24	18.144
449.59	18.404
449.94	18.577
450.30	18.486
450.65	18.636
451.00	18.725
451.36	18.881
451.71	18.875
452.06	19.088
452.41	19.099
452.77	19.242
453.12	19.312
453.47	19.432
453.82	19.494
454.18	19.593
454.53	19.715
454.88	19.756
455.23	19.850
455.59	19.899
455.94	20.068
456.29	20.211
456.64	20.134
457.00	20.276
457.35	20.426
457.70	20.510
458.05	20.609
458.40	20.807
458.76	20.814
459.11	20.926
459.46	20.981
459.81	21.095
460.16	21.088
460.52	21.230
460.87	21.250
461.22	21.389
461.57	21.487
461.92	21.581
462.28	21.657
462.63	21.746
462.98	21.874
463.33	21.865
463.68	21.986
464.03	22.144
464.38	22.059
464.74	22.177
465.09	22.218
465.44	22.344
465.79	22.531
466.14	22.545
466.49	22.634
466.84	22.772
467.20	22.769
467.55	22.819
467.90	22.909
468.25	22.980
468.60	23.046
468.95	23.138
469.30	23.227
469.65	23.260
470.00	23.314
470.36	23.468
470.71	23.407
471.06	23.498
471.41	23.601
471.76	23.629
472.11	23.715
472.46	23.780
472.81	23.751
473.16	23.845
473.51	23.878
473.86	23.902
474.21	24.063
474.56	23.997
474.91	24.032
475.26	24.144
475.62	24.050
475.97	24.169
476.32	24.199
476.67	24.177
477.02	24.148
477.37	24.342
477.72	24.281
478.07	24.302
478.42	24.351
478.77	24.336
479.12	24.301
479.47	24.364
479.82	24.437
480.17	24.401
480.52	24.411
480.87	24.482
481.22	24.515
481.57	24.434
481.92	24.478
482.27	24.432
482.62	24.543
482.97	24.465
483.32	24.567
483.67	24.535
484.02	24.582
484.36	24.519
484.71	24.500
485.06	24.568
485.41	24.647
485.76	24.697
486.11	24.798
486.46	24.738
486.81	24.768
487.16	24.781
487.51	24.820
487.86	24.936
488.21	24.979
488.56	25.103
488.91	25.086
489.25	25.117
489.60	25.252
489.95	25.195
490.30	25.367
490.65	25.431
491.00	25.522
491.35	25.516
491.70	25.500
492.05	25.678
492.39	25.720
492.74	25.766
493.09	25.850
493.44	25.938
493.79	26.013
494.14	26.090
494.49	26.160
494.83	26.285
495.18	26.377
495.53	26.437
495.88	26.511
496.23	26.543
496.58	26.641
496.92	26.734
497.27	26.785
497.62	26.900
497.97	26.907
498.32	27.033
498.67	27.110
499.01	27.101
499.36	27.212
499.71	27.259
500.06	27.365
500.41	27.499
500.75	27.485
501.10	27.462
501.45	27.627
501.80	27.707
502.14	27.757
502.49	27.841
502.84	27.854
503.19	27.929
503.53	28.037
503.88	28.064
504.23	28.052
504.58	28.065
504.92	28.175
505.27	28.208
505.62	28.245
505.97	28.319
506.31	28.341
506.66	28.347
507.01	28.399
507.36	28.313
507.70	28.357
508.05	28.356
508.40	28.317
508.74	28.356
509.09	28.342
509.44	28.291
509.79	28.327
510.13	28.254
510.48	28.297
510.83	28.218
511.17	28.165
511.52	28.182
511.87	28.163
512.21	28.166
512.56	28.180
512.91	28.208
513.25	28.198
513.60	28.241
513.95	28.294
514.29	28.297
514.64	28.360
514.98	28.413
515.33	28.434
515.68	28.465
516.02	28.471
516.37	28.514
516.72	28.577
517.06	28.608
517.41	28.658
517.75	28.573
518.10	28.679
518.45	28.671
518.79	28.722
519.14	28.792
519.48	28.780
519.83	28.771
520.18	28.817
520.52	28.808
520.87	28.875
521.21	28.858
521.56	28.881
521.90	28.841
522.25	28.814
522.60	28.823
522.94	28.895
523.29	28.906
523.63	28.811
523.98	28.821
524.32	28.811
524.67	28.816
525.01	28.705
525.36	28.677
525.70	28.725
526.05	28.672
526.39	28.636
526.74	28.572
527.08	28.502
527.43	28.425
527.77	28.425
528.12	28.299
528.46	28.315
528.81	28.241
529.15	28.141
529.50	28.062
529.84	27.980
530.19	27.911
530.53	27.768
530.88	27.661
531.22	27.617
531.57	27.466
531.91	27.295
532.26	27.202
532.60	27.093
532.94	26.863
533.29	26.779
533.63	26.564
533.98	26.397
534.32	26.273
534.67	26.119
535.01	25.918
535.35	25.739
535.70	25.506
536.04	25.387
536.39	25.146
536.73	24.979
537.07	24.736
537.42	24.584
537.76	24.378
538.11	24.184
538.45	23.921
538.79	23.732
539.14	23.572
539.48	23.362
539.82	23.164
540.17	23.003
540.51	22.799
540.85	22.675
541.20	22.487
541.54	22.299
541.89	22.175
542.23	22.092
542.57	21.934
542.92	21.825
543.26	21.753
543.60	21.632
543.94	21.592
544.29	21.519
544.63	21.413
544.97	21.376
545.32	21.307
545.66	21.334
546.00	21.326
546.35	21.343
546.69	21.295
547.03	21.289
547.37	21.342
547.72	21.317
548.06	21.360
548.40	21.446
548.75	21.500
549.09	21.489
549.43	21.543
549.77	21.646
550.12	21.674
550.46	21.821
550.80	21.821
551.14	21.949
551.49	21.977
551.83	22.139
552.17	22.265
552.51	22.381
552.85	22.596
553.20	22.621
553.54	22.872
553.88	23.014
554.22	23.187
554.56	23.351
554.91	23.565
555.25	23.794
555.59	23.971
555.93	24.186
556.27	24.386
556.62	24.615
556.96	24.880
557.30	25.061
557.64	25.244
557.98	25.510
558.32	25.717
558.67	25.939
559.01	26.173
559.35	26.377
559.69	26.618
560.03	26.856
560.37	27.034
560.71	27.302
561.05	27.493
561.40	27.658
561.74	27.929
562.08	28.091
562.42	28.265
562.76	28.529
563.10	28.618
563.44	28.826
563.78	28.997
564.12	29.141
564.46	29.302
564.81	29.442
565.15	29.585
565.49	29.684
565.83	29.769
566.17	29.867
566.51	29.918
566.85	30.037
567.19	30.120
567.53	30.261
567.87	30.259
568.21	30.281
568.55	30.329
568.89	30.352
569.23	30.363
569.57	30.402
569.91	30.407
570.25	30.353
570.59	30.394
570.93	30.347
571.27	30.335
571.61	30.272
571.95	30.270
572.29	30.213
572.63	30.176
572.97	30.115
573.31	30.046
573.65	29.959
573.99	29.902
574.33	29.793
574.67	29.710
575.01	29.577
575.35	29.435
575.69	29.391
576.03	29.322
576.37	29.190
576.71	29.051
577.05	28.940
577.39	28.775
577.73	28.646
578.06	28.561
578.40	28.377
578.74	28.238
579.08	27.990
579.42	27.857
579.76	27.660
580.10	27.465
580.44	27.347
580.78	27.137
581.12	26.959
581.45	26.811
581.79	26.629
582.13	26.441
582.47	26.244
582.81	26.074
583.15	25.915
583.49	25.741
583.83	25.554
584.16	25.418
584.50	25.268
584.84	25.127
585.18	25.023
585.52	24.822
585.86	24.705
586.19	24.599
586.53	24.468
586.87	24.349
587.21	24.173
587.55	23.979
587.88	23.934
588.22	23.751
588.56	23.541
588.90	23.386
589.24	23.211
589.57	23.032
589.91	22.837
590.25	22.614
590.59	22.410
590.92	22.246
591.26	22.054
591.60	21.796
591.94	21.636
592.27	21.361
592.61	21.126
592.95	20.909
593.29	20.638
593.62	20.388
593.96	20.120
594.30	19.822
594.64	19.564
594.97	19.217
595.31	18.862
595.65	18.569
595.98	18.208
596.32	17.802
596.66	17.450
597.00	17.047
597.33	16.620
597.67	16.213
598.01	15.722
598.34	15.336
598.68	14.979
599.02	14.567
599.35	14.141
599.69	13.793
600.03	13.431
600.36	13.045
600.70	12.762
601.03	12.436
601.37	12.170
601.71	11.920
602.04	11.693
602.38	11.394
602.72	11.156
603.05	10.900
603.39	10.705
603.72	10.419
604.06	10.180
604.40	9.945
604.73	9.691
605.07	9.437
605.40	9.190
605.74	8.975
606.08	8.711
606.41	8.432
606.75	8.194
607.08	7.919
607.42	7.689
607.75	7.475
608.09	7.211
608.42	6.957
608.76	6.695
609.10	6.449
609.43	6.192
609.77	5.973
610.10	5.743
610.44	5.492
610.77	5.267
611.11	5.025
611.44	4.822
611.78	4.580
612.11	4.364
612.45	4.209
612.78	3.983
613.12	3.779
613.45	3.600
613.79	3.420
614.12	3.254
614.46	3.069
614.79	2.942
615.13	2.791
615.46	2.675
615.79	2.504
616.13	2.400
616.46	2.279
616.80	2.192
617.13	2.064
617.47	2.004
617.80	1.937
618.13	1.874
618.47	1.733
618.80	1.697
619.14	1.628
619.47	1.583
619.81	1.502
620.14	1.456
620.47	1.406
620.81	1.335
621.14	1.274
621.47	1.262
621.81	1.220
622.14	1.188
622.48	1.144
622.81	1.120
623.14	1.099
623.48	1.061
623.81	1.026
624.14	0.995
624.48	0.975
624.81	0.960
625.14	0.948
625.48	0.924
625.81	0.898
626.14	0.888
626.48	0.902
626.81	0.895
627.14	0.904
627.48	0.907
627.81	0.927
628.14	0.925
628.47	0.942
628.81	0.967
629.14	0.999
629.47	0.998
629.81	1.066
630.14	1.084
630.47	1.119
630.80	1.187
