SpectraSuite Data File
++++++++++++++++++++++++++++++++++++
Date: Sun May 03 17:19:18 BST 2015
User: mpfc3
Dark Spectrum Present: Yes
Reference Spectrum Present: Yes
Number of Sampled Component Spectra: 1
Spectrometers: USB2E3636
Integration Time (usec): 30000 (USB2E3636)
Spectra Averaged: 100 (USB2E3636)
Boxcar Smoothing: 0 (USB2E3636)
Correct for Electrical Dark: No (USB2E3636)
Strobe/Lamp Enabled: No (USB2E3636)
Correct for Detector Non-linearity: No (USB2E3636)
Correct for Stray Light: No (USB2E3636)
Number of Pixels in Processed Spectrum: 2048
>>>>>Begin Processed Spectral Data<<<<<
180.28	0.000
180.65	365.975
181.02	328.571
181.39	327.519
181.77	275.874
182.14	287.500
182.51	360.000
182.88	396.313
183.25	285.017
183.63	317.578
184.00	312.109
184.37	343.644
184.74	275.161
185.11	397.512
185.49	328.682
185.86	446.552
186.23	301.908
186.60	303.957
186.97	321.673
187.35	276.797
187.72	317.279
188.09	387.793
188.46	346.835
188.83	287.543
189.20	-309.328
189.58	-32.718
189.95	-35.278
190.32	-33.753
190.69	-34.799
191.06	-32.451
191.43	-39.516
191.81	-37.154
192.18	-34.681
192.55	-35.346
192.92	-35.294
193.29	-37.575
193.66	-32.689
194.03	-35.897
194.41	-37.713
194.78	-38.945
195.15	-39.212
195.52	-36.431
195.89	-35.331
196.26	-31.937
196.63	-36.962
197.01	-36.520
197.38	-34.550
197.75	-42.185
198.12	-34.494
198.49	-35.425
198.86	-38.518
199.23	-36.813
199.60	-38.557
199.98	-36.480
200.35	-38.103
200.72	-35.117
201.09	-38.261
201.46	-36.816
201.83	-34.461
202.20	-34.483
202.57	-35.509
202.94	-39.094
203.31	-37.838
203.69	-38.708
204.06	-35.798
204.43	-39.588
204.80	-41.437
205.17	-38.942
205.54	-36.094
205.91	-39.863
206.28	-38.860
206.65	-36.167
207.02	-37.960
207.39	-39.385
207.76	-41.074
208.14	-39.338
208.51	-38.157
208.88	-37.043
209.25	-42.589
209.62	-39.751
209.99	-43.304
210.36	-38.640
210.73	-37.953
211.10	-43.623
211.47	-36.723
211.84	-33.727
212.21	-41.812
212.58	-39.928
212.95	-38.536
213.32	-37.018
213.69	-37.220
214.06	-39.243
214.43	-40.155
214.80	-35.516
215.17	-42.234
215.55	-40.285
215.92	-45.773
216.29	-34.915
216.66	-37.500
217.03	-40.321
217.40	-42.359
217.77	-39.370
218.14	-38.821
218.51	-44.382
218.88	-40.527
219.25	-47.044
219.62	-45.932
219.99	-43.708
220.36	-39.103
220.73	-42.318
221.10	-35.914
221.47	-40.230
221.84	-38.906
222.21	-41.981
222.58	-37.984
222.95	-42.728
223.32	-41.438
223.69	-44.672
224.06	-41.263
224.43	-45.485
224.80	-43.701
225.17	-41.667
225.54	-41.529
225.91	-46.816
226.27	-41.176
226.64	-44.723
227.01	-41.980
227.38	-45.638
227.75	-37.927
228.12	-44.921
228.49	-45.549
228.86	-42.426
229.23	-44.918
229.60	-48.920
229.97	-44.811
230.34	-45.673
230.71	-48.829
231.08	-49.605
231.45	-45.251
231.82	-44.490
232.19	-49.516
232.56	-53.582
232.93	-47.181
233.30	-47.236
233.66	-51.772
234.03	-47.712
234.40	-48.350
234.77	-48.588
235.14	-55.933
235.51	-48.295
235.88	-44.278
236.25	-44.277
236.62	-48.249
236.99	-48.980
237.36	-47.207
237.73	-50.377
238.09	-45.718
238.46	-51.520
238.83	-55.812
239.20	-50.763
239.57	-49.450
239.94	-47.338
240.31	-52.273
240.68	-50.000
241.05	-50.925
241.41	-46.086
241.78	-49.887
242.15	-55.086
242.52	-44.567
242.89	-52.699
243.26	-52.937
243.63	-52.213
244.00	-48.827
244.36	-51.651
244.73	-55.590
245.10	-43.564
245.47	-45.404
245.84	-51.163
246.21	-51.546
246.58	-51.220
246.94	-50.187
247.31	-50.148
247.68	-54.232
248.05	-52.959
248.42	-52.681
248.79	-61.731
249.15	-54.738
249.52	-59.755
249.89	-51.384
250.26	-54.553
250.63	-59.423
251.00	-47.623
251.36	-56.954
251.73	-54.360
252.10	-45.284
252.47	-58.690
252.84	-57.389
253.20	-50.817
253.57	-57.522
253.94	-54.157
254.31	-51.278
254.68	-59.061
255.05	-62.596
255.41	-54.652
255.78	-46.920
256.15	-65.971
256.52	-62.689
256.88	-52.623
257.25	-57.886
257.62	-57.586
257.99	-55.602
258.36	-57.759
258.72	-59.983
259.09	-57.797
259.46	-52.129
259.83	-56.616
260.19	-47.541
260.56	-51.458
260.93	-67.759
261.30	-52.607
261.67	-55.263
262.03	-55.748
262.40	-53.302
262.77	-58.716
263.14	-63.276
263.50	-55.250
263.87	-62.857
264.24	-46.688
264.61	-57.423
264.97	-54.699
265.34	-58.658
265.71	-61.737
266.07	-56.529
266.44	-57.916
266.81	-55.918
267.18	-57.743
267.54	-56.425
267.91	-59.672
268.28	-62.093
268.64	-58.215
269.01	-56.917
269.38	-59.765
269.75	-57.131
270.11	-52.974
270.48	-50.792
270.85	-61.901
271.21	-55.798
271.58	-56.822
271.95	-53.689
272.32	-56.704
272.68	-58.966
273.05	-52.916
273.42	-54.988
273.78	-55.602
274.15	-66.125
274.52	-61.121
274.88	-60.811
275.25	-57.741
275.62	-66.606
275.98	-54.685
276.35	-49.919
276.72	-56.182
277.08	-62.740
277.45	-66.378
277.82	-61.252
278.18	-58.383
278.55	-73.524
278.92	-61.062
279.28	-57.823
279.65	-60.135
280.01	-58.326
280.38	-53.224
280.75	-62.920
281.11	-54.254
281.48	-49.922
281.85	-51.390
282.21	-60.313
282.58	-66.782
282.95	-58.860
283.31	-50.942
283.68	-51.459
284.04	-66.004
284.41	-62.358
284.78	-64.848
285.14	-63.869
285.51	-57.252
285.87	-51.144
286.24	-62.291
286.61	-54.115
286.97	-60.819
287.34	-61.452
287.70	-65.399
288.07	-52.241
288.44	-60.418
288.80	-54.475
289.17	-58.751
289.53	-60.017
289.90	-55.397
290.26	-54.967
290.63	-57.081
291.00	-56.010
291.36	-57.303
291.73	-59.554
292.09	-60.153
292.46	-60.158
292.82	-49.762
293.19	-56.856
293.56	-60.399
293.92	-58.909
294.29	-58.491
294.65	-61.982
295.02	-61.082
295.38	-61.282
295.75	-54.762
296.11	-51.775
296.48	-53.477
296.84	-62.393
297.21	-51.813
297.57	-61.087
297.94	-62.950
298.30	-48.905
298.67	-51.908
299.04	-62.944
299.40	-52.732
299.77	-54.968
300.13	-52.013
300.50	-55.008
300.86	-56.328
301.23	-59.184
301.59	-60.404
301.96	-53.333
302.32	-53.169
302.69	-57.985
303.05	-53.758
303.42	-50.420
303.78	-54.590
304.14	-55.203
304.51	-50.619
304.87	-49.453
305.24	-47.449
305.60	-50.315
305.97	-51.860
306.33	-55.295
306.70	-51.431
307.06	-49.698
307.43	-56.175
307.79	-52.685
308.16	-51.510
308.52	-48.055
308.88	-49.696
309.25	-48.981
309.61	-48.115
309.98	-49.961
310.34	-51.758
310.71	-45.962
311.07	-48.435
311.44	-45.770
311.80	-50.959
312.16	-50.110
312.53	-48.006
312.89	-43.191
313.26	-49.848
313.62	-43.971
313.98	-52.620
314.35	-46.254
314.71	-46.359
315.08	-46.341
315.44	-48.014
315.80	-42.631
316.17	-43.164
316.53	-43.322
316.90	-45.572
317.26	-42.857
317.62	-44.071
317.99	-40.753
318.35	-45.654
318.72	-49.183
319.08	-43.475
319.44	-43.214
319.81	-44.687
320.17	-37.531
320.53	-41.640
320.90	-42.036
321.26	-41.839
321.62	-41.480
321.99	-51.664
322.35	-41.605
322.72	-38.985
323.08	-40.569
323.44	-44.752
323.81	-39.875
324.17	-38.211
324.53	-36.407
324.90	-33.412
325.26	-37.867
325.62	-43.235
325.99	-38.696
326.35	-33.804
326.71	-39.397
327.08	-35.108
327.44	-38.285
327.80	-32.076
328.16	-27.198
328.53	-39.871
328.89	-37.253
329.25	-38.027
329.62	-28.961
329.98	-26.652
330.34	-32.042
330.71	-33.433
331.07	-30.306
331.43	-30.519
331.79	-25.120
332.16	-27.348
332.52	-31.550
332.88	-25.906
333.24	-33.243
333.61	-24.923
333.97	-27.013
334.33	-25.114
334.70	-26.200
335.06	-27.727
335.42	-27.118
335.78	-25.020
336.15	-24.503
336.51	-26.375
336.87	-25.853
337.23	-21.757
337.60	-22.197
337.96	-23.610
338.32	-21.980
338.68	-22.270
339.04	-22.016
339.41	-20.627
339.77	-21.102
340.13	-23.429
340.49	-21.186
340.86	-18.632
341.22	-18.404
341.58	-18.811
341.94	-20.815
342.30	-18.483
342.67	-17.804
343.03	-19.258
343.39	-18.838
343.75	-17.200
344.11	-17.081
344.48	-18.676
344.84	-18.171
345.20	-16.529
345.56	-15.917
345.92	-18.592
346.28	-15.120
346.65	-16.150
347.01	-17.652
347.37	-15.462
347.73	-15.339
348.09	-16.485
348.45	-13.581
348.82	-14.219
349.18	-14.530
349.54	-13.732
349.90	-12.724
350.26	-13.246
350.62	-14.581
350.98	-12.799
351.35	-14.054
351.71	-13.480
352.07	-12.723
352.43	-13.049
352.79	-11.816
353.15	-12.330
353.51	-11.201
353.87	-12.713
354.24	-12.076
354.60	-11.244
354.96	-11.891
355.32	-10.339
355.68	-9.933
356.04	-9.923
356.40	-10.782
356.76	-10.247
357.12	-9.973
357.48	-10.491
357.85	-10.667
358.21	-9.181
358.57	-10.420
358.93	-10.300
359.29	-9.253
359.65	-9.992
360.01	-9.371
360.37	-8.995
360.73	-9.785
361.09	-8.799
361.45	-8.553
361.81	-9.213
362.17	-7.788
362.53	-8.149
362.89	-9.379
363.25	-8.004
363.62	-7.412
363.98	-8.014
364.34	-7.915
364.70	-7.234
365.06	-7.384
365.42	-7.593
365.78	-7.210
366.14	-7.197
366.50	-6.920
366.86	-6.534
367.22	-7.952
367.58	-6.855
367.94	-7.093
368.30	-6.208
368.66	-5.450
369.02	-5.907
369.38	-5.879
369.74	-6.027
370.10	-5.111
370.46	-5.904
370.82	-6.302
371.18	-4.858
371.54	-5.851
371.90	-6.014
372.26	-5.836
372.62	-5.019
372.98	-5.060
373.33	-5.601
373.69	-5.937
374.05	-4.887
374.41	-4.892
374.77	-4.473
375.13	-4.911
375.49	-5.038
375.85	-5.351
376.21	-4.306
376.57	-4.415
376.93	-3.914
377.29	-3.794
377.65	-3.244
378.01	-4.467
378.37	-4.720
378.73	-3.734
379.08	-3.695
379.44	-3.129
379.80	-3.183
380.16	-3.300
380.52	-3.523
380.88	-3.896
381.24	-3.653
381.60	-3.446
381.96	-2.796
382.32	-2.805
382.67	-3.356
383.03	-2.257
383.39	-2.759
383.75	-2.328
384.11	-2.717
384.47	-2.505
384.83	-2.056
385.19	-1.992
385.54	-1.395
385.90	-1.998
386.26	-1.839
386.62	-1.591
386.98	-1.293
387.34	-1.304
387.70	-1.084
388.05	-1.537
388.41	-1.088
388.77	-0.601
389.13	-0.196
389.49	-0.349
389.85	-0.249
390.20	-0.031
390.56	-0.462
390.92	-0.247
391.28	-0.036
391.64	0.364
391.99	0.129
392.35	0.099
392.71	0.577
393.07	0.876
393.43	0.979
393.78	1.066
394.14	0.931
394.50	1.375
394.86	1.308
395.22	1.350
395.57	0.887
395.93	1.583
396.29	1.551
396.65	1.900
397.00	1.859
397.36	2.023
397.72	2.528
398.08	2.475
398.43	2.538
398.79	2.668
399.15	2.643
399.51	2.744
399.86	3.142
400.22	3.302
400.58	3.307
400.94	3.290
401.29	3.594
401.65	3.862
402.01	3.679
402.37	3.654
402.72	4.000
403.08	4.031
403.44	4.027
403.79	4.130
404.15	4.176
404.51	4.759
404.86	4.757
405.22	4.934
405.58	4.970
405.94	5.155
406.29	5.263
406.65	5.174
407.01	5.218
407.36	5.782
407.72	5.575
408.08	5.812
408.43	5.933
408.79	6.173
409.15	6.503
409.50	6.451
409.86	6.232
410.22	6.590
410.57	6.688
410.93	6.955
411.29	6.867
411.64	6.962
412.00	7.324
412.35	7.322
412.71	7.321
413.07	7.845
413.42	7.548
413.78	7.596
414.14	7.926
414.49	7.928
414.85	8.070
415.20	8.303
415.56	8.357
415.92	8.609
416.27	8.593
416.63	8.908
416.98	8.786
417.34	9.124
417.70	9.239
418.05	9.297
418.41	9.488
418.76	9.546
419.12	9.593
419.47	9.777
419.83	9.794
420.19	10.153
420.54	10.081
420.90	10.058
421.25	10.392
421.61	10.301
421.96	10.364
422.32	10.623
422.67	10.797
423.03	10.854
423.39	11.212
423.74	11.267
424.10	11.341
424.45	11.606
424.81	11.537
425.16	11.523
425.52	11.682
425.87	12.076
426.23	11.937
426.58	12.005
426.94	12.114
427.29	12.063
427.65	12.298
428.00	12.517
428.36	12.597
428.71	12.822
429.07	12.764
429.42	12.943
429.78	13.132
430.13	13.275
430.49	13.255
430.84	13.479
431.19	13.514
431.55	13.567
431.90	13.610
432.26	13.736
432.61	13.904
432.97	13.947
433.32	14.077
433.68	14.048
434.03	14.171
434.39	14.357
434.74	14.486
435.09	14.682
435.45	14.602
435.80	14.747
436.16	14.983
436.51	15.066
436.86	15.166
437.22	15.220
437.57	15.316
437.93	15.492
438.28	15.603
438.63	15.749
438.99	15.796
439.34	15.852
439.70	16.058
440.05	15.977
440.40	16.216
440.76	16.180
441.11	16.234
441.47	16.495
441.82	16.347
442.17	16.590
442.53	16.673
442.88	16.759
443.23	16.967
443.59	16.894
443.94	17.104
444.29	17.173
444.65	17.303
445.00	17.266
445.35	17.493
445.71	17.361
446.06	17.676
446.41	17.727
446.77	17.733
447.12	17.936
447.47	17.966
447.83	18.007
448.18	17.970
448.53	18.202
448.89	18.250
449.24	18.440
449.59	18.424
449.94	18.557
450.30	18.521
450.65	18.645
451.00	18.785
451.36	19.001
451.71	18.948
452.06	19.115
452.41	19.106
452.77	19.222
453.12	19.334
453.47	19.650
453.82	19.539
454.18	19.668
454.53	19.785
454.88	19.752
455.23	19.933
455.59	19.973
455.94	20.094
456.29	20.249
456.64	20.229
457.00	20.385
457.35	20.490
457.70	20.543
458.05	20.616
458.40	20.799
458.76	20.841
459.11	20.942
459.46	21.171
459.81	21.151
460.16	21.110
460.52	21.258
460.87	21.369
461.22	21.491
461.57	21.597
461.92	21.669
462.28	21.618
462.63	21.838
462.98	21.870
463.33	21.987
463.68	22.052
464.03	22.096
464.38	22.185
464.74	22.214
465.09	22.282
465.44	22.399
465.79	22.510
466.14	22.655
466.49	22.602
466.84	22.901
467.20	22.846
467.55	22.809
467.90	22.921
468.25	23.207
468.60	23.077
468.95	23.231
469.30	23.267
469.65	23.382
470.00	23.444
470.36	23.541
470.71	23.520
471.06	23.579
471.41	23.679
471.76	23.718
472.11	23.830
472.46	23.830
472.81	23.788
473.16	23.887
473.51	23.943
473.86	24.007
474.21	24.064
474.56	24.070
474.91	24.090
475.26	24.157
475.62	24.124
475.97	24.244
476.32	24.218
476.67	24.190
477.02	24.191
477.37	24.290
477.72	24.291
478.07	24.284
478.42	24.291
478.77	24.371
479.12	24.384
479.47	24.422
479.82	24.432
480.17	24.493
480.52	24.400
480.87	24.448
481.22	24.424
481.57	24.463
481.92	24.484
482.27	24.414
482.62	24.462
482.97	24.544
483.32	24.450
483.67	24.492
484.02	24.573
484.36	24.592
484.71	24.537
485.06	24.601
485.41	24.587
485.76	24.751
486.11	24.702
486.46	24.729
486.81	24.755
487.16	24.828
487.51	24.840
487.86	24.978
488.21	25.008
488.56	25.060
488.91	25.114
489.25	25.173
489.60	25.215
489.95	25.306
490.30	25.341
490.65	25.412
491.00	25.464
491.35	25.466
491.70	25.626
492.05	25.694
492.39	25.788
492.74	25.799
493.09	25.842
493.44	25.943
493.79	26.113
494.14	26.059
494.49	26.156
494.83	26.258
495.18	26.324
495.53	26.393
495.88	26.487
496.23	26.635
496.58	26.708
496.92	26.686
497.27	26.781
497.62	26.932
497.97	26.928
498.32	27.075
498.67	27.037
499.01	27.139
499.36	27.224
499.71	27.329
500.06	27.379
500.41	27.550
500.75	27.465
501.10	27.543
501.45	27.582
501.80	27.665
502.14	27.766
502.49	27.774
502.84	27.957
503.19	27.905
503.53	27.902
503.88	27.975
504.23	28.070
504.58	28.067
504.92	28.143
505.27	28.238
505.62	28.279
505.97	28.272
506.31	28.301
506.66	28.315
507.01	28.334
507.36	28.344
507.70	28.364
508.05	28.389
508.40	28.321
508.74	28.349
509.09	28.336
509.44	28.291
509.79	28.331
510.13	28.234
510.48	28.278
510.83	28.250
511.17	28.194
511.52	28.189
511.87	28.188
512.21	28.142
512.56	28.190
512.91	28.252
513.25	28.181
513.60	28.189
513.95	28.316
514.29	28.304
514.64	28.371
514.98	28.347
515.33	28.456
515.68	28.497
516.02	28.507
516.37	28.523
516.72	28.522
517.06	28.567
517.41	28.652
517.75	28.671
518.10	28.666
518.45	28.689
518.79	28.744
519.14	28.788
519.48	28.745
519.83	28.738
520.18	28.758
520.52	28.834
520.87	28.835
521.21	28.802
521.56	28.846
521.90	28.874
522.25	28.803
522.60	28.776
522.94	28.884
523.29	28.912
523.63	28.803
523.98	28.849
524.32	28.824
524.67	28.798
525.01	28.765
525.36	28.767
525.70	28.743
526.05	28.638
526.39	28.619
526.74	28.569
527.08	28.482
527.43	28.472
527.77	28.422
528.12	28.348
528.46	28.295
528.81	28.188
529.15	28.127
529.50	28.005
529.84	27.977
530.19	27.931
530.53	27.684
530.88	27.652
531.22	27.576
531.57	27.459
531.91	27.309
532.26	27.168
532.60	27.072
532.94	26.875
533.29	26.772
533.63	26.608
533.98	26.437
534.32	26.288
534.67	26.174
535.01	25.983
535.35	25.750
535.70	25.509
536.04	25.362
536.39	25.170
536.73	24.950
537.07	24.731
537.42	24.603
537.76	24.378
538.11	24.157
538.45	23.905
538.79	23.765
539.14	23.575
539.48	23.422
539.82	23.206
540.17	22.973
540.51	22.801
540.85	22.655
541.20	22.534
541.54	22.350
541.89	22.225
542.23	22.024
542.57	21.911
542.92	21.821
543.26	21.702
543.60	21.702
543.94	21.548
544.29	21.513
544.63	21.406
544.97	21.357
545.32	21.348
545.66	21.305
546.00	21.319
546.35	21.306
546.69	21.343
547.03	21.243
547.37	21.367
547.72	21.325
548.06	21.385
548.40	21.473
548.75	21.449
549.09	21.533
549.43	21.611
549.77	21.602
550.12	21.659
550.46	21.788
550.80	21.811
551.14	21.931
551.49	21.999
551.83	22.165
552.17	22.261
552.51	22.353
552.85	22.578
553.20	22.681
553.54	22.870
553.88	22.967
554.22	23.191
554.56	23.316
554.91	23.640
555.25	23.758
555.59	23.953
555.93	24.152
556.27	24.356
556.62	24.636
556.96	24.883
557.30	25.036
557.64	25.253
557.98	25.505
558.32	25.741
558.67	26.005
559.01	26.184
559.35	26.448
559.69	26.643
560.03	26.850
560.37	27.104
560.71	27.297
561.05	27.534
561.40	27.693
561.74	27.874
562.08	28.118
562.42	28.304
562.76	28.499
563.10	28.655
563.44	28.872
563.78	28.986
564.12	29.185
564.46	29.319
564.81	29.455
565.15	29.557
565.49	29.719
565.83	29.777
566.17	29.900
566.51	29.948
566.85	30.027
567.19	30.150
567.53	30.169
567.87	30.259
568.21	30.270
568.55	30.316
568.89	30.342
569.23	30.389
569.57	30.402
569.91	30.428
570.25	30.432
570.59	30.412
570.93	30.380
571.27	30.340
571.61	30.299
571.95	30.295
572.29	30.233
572.63	30.163
572.97	30.123
573.31	30.026
573.65	29.991
573.99	29.883
574.33	29.786
574.67	29.720
575.01	29.597
575.35	29.476
575.69	29.397
576.03	29.314
576.37	29.232
576.71	29.030
577.05	28.932
577.39	28.793
577.73	28.695
578.06	28.534
578.40	28.334
578.74	28.236
579.08	28.044
579.42	27.871
579.76	27.683
580.10	27.485
580.44	27.349
580.78	27.191
581.12	26.972
581.45	26.790
581.79	26.635
582.13	26.480
582.47	26.252
582.81	26.098
583.15	25.953
583.49	25.771
583.83	25.606
584.16	25.403
584.50	25.306
584.84	25.172
585.18	25.005
585.52	24.865
585.86	24.774
586.19	24.595
586.53	24.473
586.87	24.385
587.21	24.175
587.55	24.031
587.88	23.864
588.22	23.711
588.56	23.502
588.90	23.414
589.24	23.230
589.57	23.039
589.91	22.834
590.25	22.684
590.59	22.422
590.92	22.248
591.26	22.042
591.60	21.816
591.94	21.573
592.27	21.365
592.61	21.111
592.95	20.858
593.29	20.656
593.62	20.390
593.96	20.171
594.30	19.823
594.64	19.514
594.97	19.254
595.31	18.919
595.65	18.588
595.98	18.189
596.32	17.793
596.66	17.450
597.00	17.041
597.33	16.637
597.67	16.227
598.01	15.805
598.34	15.391
598.68	14.999
599.02	14.599
599.35	14.159
599.69	13.847
600.03	13.456
600.36	13.071
600.70	12.772
601.03	12.465
601.37	12.198
601.71	11.918
602.04	11.669
602.38	11.389
602.72	11.125
603.05	10.909
603.39	10.707
603.72	10.455
604.06	10.235
604.40	9.983
604.73	9.706
605.07	9.466
605.40	9.212
605.74	9.003
606.08	8.704
606.41	8.456
606.75	8.221
607.08	7.947
607.42	7.701
607.75	7.465
608.09	7.235
608.42	6.978
608.76	6.694
609.10	6.447
609.43	6.231
609.77	5.965
610.10	5.757
610.44	5.513
610.77	5.262
611.11	5.053
611.44	4.853
611.78	4.595
612.11	4.385
612.45	4.213
612.78	3.983
613.12	3.784
613.45	3.623
613.79	3.416
614.12	3.279
614.46	3.114
614.79	2.970
615.13	2.811
615.46	2.674
615.79	2.515
616.13	2.402
616.46	2.312
616.80	2.192
617.13	2.098
617.47	2.015
617.80	1.940
618.13	1.867
618.47	1.765
618.80	1.703
619.14	1.648
619.47	1.580
619.81	1.501
620.14	1.484
620.47	1.410
620.81	1.358
621.14	1.286
621.47	1.281
621.81	1.218
622.14	1.205
622.48	1.148
622.81	1.114
623.14	1.093
623.48	1.100
623.81	1.037
624.14	0.997
624.48	0.978
624.81	0.961
625.14	0.936
625.48	0.932
625.81	0.934
626.14	0.914
626.48	0.904
626.81	0.923
627.14	0.906
627.48	0.916
627.81	0.901
628.14	0.928
628.47	0.968
628.81	0.974
629.14	0.999
629.47	1.050
629.81	1.062
630.14	1.074
630.47	1.122
630.80	1.193
631.14	1.222
