SpectraSuite Data File
++++++++++++++++++++++++++++++++++++
Date: Sun May 03 17:14:10 BST 2015
User: mpfc3
Dark Spectrum Present: Yes
Reference Spectrum Present: Yes
Number of Sampled Component Spectra: 1
Spectrometers: USB2E3636
Integration Time (usec): 30000 (USB2E3636)
Spectra Averaged: 100 (USB2E3636)
Boxcar Smoothing: 0 (USB2E3636)
Correct for Electrical Dark: No (USB2E3636)
Strobe/Lamp Enabled: No (USB2E3636)
Correct for Detector Non-linearity: No (USB2E3636)
Correct for Stray Light: No (USB2E3636)
Number of Pixels in Processed Spectrum: 2048
>>>>>Begin Processed Spectral Data<<<<<
180.28	0.000
180.65	288.797
181.02	263.095
181.39	276.357
181.77	240.909
182.14	222.569
182.51	270.417
182.88	300.922
183.25	245.993
183.63	259.375
184.00	245.312
184.37	288.136
184.74	206.129
185.11	300.498
185.49	243.798
185.86	359.195
186.23	235.878
186.60	237.050
186.97	258.555
187.35	231.699
187.72	257.353
188.09	307.981
188.46	281.435
188.83	242.907
189.20	-247.761
189.58	-23.377
189.95	-26.580
190.32	-26.356
190.69	-22.564
191.06	-26.890
191.43	-28.288
191.81	-27.409
192.18	-26.980
192.55	-25.851
192.92	-27.158
193.29	-24.361
193.66	-24.477
194.03	-26.950
194.41	-25.673
194.78	-30.471
195.15	-27.510
195.52	-24.129
195.89	-25.552
196.26	-24.701
196.63	-26.892
197.01	-25.403
197.38	-22.997
197.75	-29.356
198.12	-25.549
198.49	-27.596
198.86	-26.527
199.23	-27.189
199.60	-30.214
199.98	-27.762
200.35	-24.499
200.72	-26.597
201.09	-28.073
201.46	-27.032
201.83	-25.980
202.20	-29.056
202.57	-27.212
202.94	-27.125
203.31	-24.490
203.69	-31.046
204.06	-29.524
204.43	-30.263
204.80	-31.264
205.17	-28.412
205.54	-29.043
205.91	-31.925
206.28	-27.519
206.65	-27.439
207.02	-26.459
207.39	-30.751
207.76	-31.739
208.14	-27.273
208.51	-30.582
208.88	-29.101
209.25	-30.287
209.62	-26.387
209.99	-31.799
210.36	-25.973
210.73	-28.407
211.10	-31.943
211.47	-26.671
211.84	-22.297
212.21	-30.894
212.58	-32.871
212.95	-27.044
213.32	-28.129
213.69	-29.388
214.06	-31.190
214.43	-29.209
214.80	-27.375
215.17	-32.413
215.55	-29.703
215.92	-31.810
216.29	-26.889
216.66	-23.934
217.03	-28.915
217.40	-33.252
217.77	-27.627
218.14	-27.886
218.51	-29.526
218.88	-30.104
219.25	-29.434
219.62	-35.746
219.99	-30.448
220.36	-31.196
220.73	-29.898
221.10	-28.231
221.47	-29.183
221.84	-32.495
222.21	-33.291
222.58	-27.132
222.95	-32.644
223.32	-35.556
223.69	-37.392
224.06	-30.740
224.43	-33.198
224.80	-29.481
225.17	-28.109
225.54	-30.064
225.91	-35.637
226.27	-31.092
226.64	-35.092
227.01	-33.993
227.38	-33.758
227.75	-29.105
228.12	-30.475
228.49	-33.723
228.86	-33.836
229.23	-27.344
229.60	-36.437
229.97	-36.289
230.34	-33.036
230.71	-36.409
231.08	-45.298
231.45	-36.567
231.82	-33.739
232.19	-35.615
232.56	-42.837
232.93	-37.687
233.30	-32.960
233.66	-35.286
234.03	-33.010
234.40	-32.323
234.77	-31.073
235.14	-43.235
235.51	-35.227
235.88	-31.471
236.25	-31.734
236.62	-35.311
236.99	-40.816
237.36	-34.916
237.73	-41.780
238.09	-35.881
238.46	-42.105
238.83	-43.741
239.20	-37.328
239.57	-36.023
239.94	-39.460
240.31	-40.762
240.68	-38.954
241.05	-35.825
241.41	-32.992
241.78	-33.308
242.15	-41.862
242.52	-30.812
242.89	-35.907
243.26	-41.710
243.63	-41.560
244.00	-36.144
244.36	-33.089
244.73	-39.829
245.10	-34.255
245.47	-32.312
245.84	-38.372
246.21	-38.717
246.58	-37.119
246.94	-36.445
247.31	-35.133
247.68	-42.241
248.05	-39.074
248.42	-40.093
248.79	-43.204
249.15	-37.666
249.52	-49.061
249.89	-36.799
250.26	-39.767
250.63	-42.823
251.00	-34.061
251.36	-43.212
251.73	-45.405
252.10	-32.541
252.47	-46.807
252.84	-38.311
253.20	-37.588
253.57	-35.961
253.94	-39.905
254.31	-38.885
254.68	-47.896
255.05	-48.506
255.41	-46.186
255.78	-38.327
256.15	-57.441
256.52	-42.269
256.88	-41.425
257.25	-39.967
257.62	-44.209
257.99	-42.291
258.36	-45.311
258.72	-44.739
259.09	-37.621
259.46	-40.931
259.83	-47.571
260.19	-38.329
260.56	-40.268
260.93	-48.361
261.30	-36.265
261.67	-45.066
262.03	-38.976
262.40	-41.352
262.77	-45.705
263.14	-48.621
263.50	-43.667
263.87	-49.177
264.24	-35.174
264.61	-43.556
264.97	-42.490
265.34	-41.259
265.71	-50.387
266.07	-40.127
266.44	-40.525
266.81	-43.020
267.18	-42.422
267.54	-42.504
267.91	-42.705
268.28	-48.971
268.64	-43.786
269.01	-43.417
269.38	-39.648
269.75	-47.456
270.11	-39.469
270.48	-36.609
270.85	-47.336
271.21	-45.546
271.58	-38.519
271.95	-39.016
272.32	-42.528
272.68	-44.741
273.05	-39.365
273.42	-42.045
273.78	-42.559
274.15	-54.743
274.52	-47.069
274.88	-48.986
275.25	-42.762
275.62	-49.864
275.98	-38.368
276.35	-36.071
276.72	-41.716
277.08	-40.936
277.45	-42.201
277.82	-49.637
278.18	-44.712
278.55	-54.982
278.92	-45.310
279.28	-46.854
279.65	-39.274
280.01	-39.749
280.38	-39.837
280.75	-42.655
281.11	-41.332
281.48	-33.256
281.85	-34.234
282.21	-46.997
282.58	-43.712
282.95	-47.807
283.31	-39.148
283.68	-35.900
284.04	-49.819
284.41	-46.900
284.78	-48.748
285.14	-42.756
285.51	-40.797
285.87	-38.154
286.24	-41.722
286.61	-41.397
286.97	-44.110
287.34	-50.562
287.70	-49.728
288.07	-41.972
288.44	-41.925
288.80	-39.845
289.17	-44.207
289.53	-49.309
289.90	-42.092
290.26	-38.844
290.63	-47.958
291.00	-37.646
291.36	-47.018
291.73	-50.446
292.09	-46.049
292.46	-43.433
292.82	-37.005
293.19	-43.406
293.56	-42.762
293.92	-42.796
294.29	-41.591
294.65	-49.369
295.02	-45.724
295.38	-46.269
295.75	-45.493
296.11	-37.325
296.48	-39.901
296.84	-44.957
297.21	-38.920
297.57	-45.399
297.94	-46.763
298.30	-39.659
298.67	-36.884
299.04	-43.486
299.40	-41.251
299.77	-37.901
300.13	-39.148
300.50	-44.157
300.86	-41.522
301.23	-40.490
301.59	-47.178
301.96	-36.549
302.32	-42.140
302.69	-43.325
303.05	-37.092
303.42	-37.910
303.78	-42.567
304.14	-39.396
304.51	-40.712
304.87	-40.469
305.24	-34.730
305.60	-43.849
305.97	-36.279
306.33	-40.097
306.70	-40.859
307.06	-35.045
307.43	-43.904
307.79	-39.844
308.16	-35.476
308.52	-33.715
308.88	-37.006
309.25	-35.396
309.61	-36.216
309.98	-38.515
310.34	-34.181
310.71	-31.571
311.07	-36.854
311.44	-30.296
311.80	-37.463
312.16	-35.541
312.53	-38.109
312.89	-30.880
313.26	-37.062
313.62	-32.924
313.98	-32.678
314.35	-36.167
314.71	-34.247
315.08	-31.923
315.44	-37.184
315.80	-35.055
316.17	-33.380
316.53	-29.288
316.90	-35.763
317.26	-32.972
317.62	-35.367
317.99	-29.458
318.35	-29.706
318.72	-35.831
319.08	-28.429
319.44	-36.394
319.81	-33.651
320.17	-28.242
320.53	-29.538
320.90	-28.857
321.26	-30.457
321.62	-29.789
321.99	-37.284
322.35	-27.145
322.72	-29.889
323.08	-30.798
323.44	-32.495
323.81	-30.903
324.17	-29.384
324.53	-29.019
324.90	-23.731
325.26	-30.857
325.62	-32.718
325.99	-30.593
326.35	-22.011
326.71	-28.539
327.08	-26.567
327.44	-24.249
327.80	-23.155
328.16	-18.766
328.53	-31.792
328.89	-28.463
329.25	-27.106
329.62	-20.995
329.98	-21.938
330.34	-22.047
330.71	-25.959
331.07	-23.069
331.43	-19.527
331.79	-19.397
332.16	-21.538
332.52	-23.777
332.88	-22.016
333.24	-21.935
333.61	-17.315
333.97	-19.259
334.33	-17.253
334.70	-18.667
335.06	-19.983
335.42	-19.092
335.78	-18.175
336.15	-18.338
336.51	-19.761
336.87	-20.698
337.23	-16.893
337.60	-17.176
337.96	-18.932
338.32	-18.360
338.68	-16.219
339.04	-15.746
339.41	-13.842
339.77	-16.286
340.13	-16.411
340.49	-15.729
340.86	-13.842
341.22	-14.413
341.58	-14.641
341.94	-14.529
342.30	-13.365
342.67	-15.050
343.03	-14.106
343.39	-13.553
343.75	-12.562
344.11	-10.851
344.48	-12.229
344.84	-12.250
345.20	-13.537
345.56	-12.538
345.92	-13.860
346.28	-10.838
346.65	-12.672
347.01	-12.296
347.37	-12.005
347.73	-10.986
348.09	-11.709
348.45	-10.648
348.82	-10.707
349.18	-11.575
349.54	-9.139
349.90	-8.977
350.26	-9.174
350.62	-9.558
350.98	-9.865
351.35	-9.438
351.71	-9.670
352.07	-8.780
352.43	-8.507
352.79	-7.666
353.15	-8.660
353.51	-9.956
353.87	-8.897
354.24	-7.066
354.60	-7.835
354.96	-8.342
355.32	-7.624
355.68	-8.309
356.04	-7.885
356.40	-8.170
356.76	-7.626
357.12	-6.497
357.48	-8.053
357.85	-6.311
358.21	-6.481
358.57	-7.378
358.93	-6.363
359.29	-6.898
359.65	-6.744
360.01	-6.091
360.37	-6.977
360.73	-7.046
361.09	-5.547
361.45	-6.667
361.81	-6.173
362.17	-5.957
362.53	-5.502
362.89	-5.559
363.25	-5.978
363.62	-5.373
363.98	-5.272
364.34	-5.268
364.70	-5.204
365.06	-5.970
365.42	-4.722
365.78	-5.538
366.14	-5.035
366.50	-4.895
366.86	-4.279
367.22	-4.891
367.58	-5.255
367.94	-5.145
368.30	-4.325
368.66	-3.917
369.02	-3.635
369.38	-3.911
369.74	-4.034
370.10	-3.676
370.46	-3.808
370.82	-3.876
371.18	-3.290
371.54	-4.149
371.90	-4.222
372.26	-3.320
372.62	-3.775
372.98	-3.366
373.33	-4.227
373.69	-3.562
374.05	-3.020
374.41	-3.432
374.77	-2.382
375.13	-3.657
375.49	-3.246
375.85	-3.253
376.21	-2.861
376.57	-2.542
376.93	-2.865
377.29	-2.257
377.65	-2.486
378.01	-3.520
378.37	-2.629
378.73	-2.573
379.08	-2.803
379.44	-1.740
379.80	-1.869
380.16	-1.812
380.52	-1.971
380.88	-1.687
381.24	-1.964
381.60	-2.003
381.96	-1.390
382.32	-1.217
382.67	-2.127
383.03	-0.549
383.39	-1.398
383.75	-0.697
384.11	-1.369
384.47	-1.481
384.83	-1.021
385.19	-0.803
385.54	-0.428
385.90	-0.887
386.26	-0.662
386.62	-0.389
386.98	-0.278
387.34	-0.114
387.70	0.140
388.05	0.166
388.41	0.130
388.77	0.575
389.13	0.601
389.49	0.615
389.85	0.796
390.20	0.793
390.56	0.779
390.92	0.584
391.28	0.975
391.64	1.410
391.99	0.953
392.35	0.976
392.71	1.462
393.07	1.826
393.43	1.580
393.78	1.874
394.14	1.681
394.50	2.183
394.86	2.012
395.22	2.506
395.57	2.283
395.93	2.558
396.29	2.287
396.65	2.620
397.00	2.895
397.36	3.318
397.72	3.142
398.08	3.569
398.43	3.287
398.79	3.500
399.15	3.613
399.51	3.917
399.86	3.846
400.22	4.097
400.58	4.033
400.94	3.986
401.29	4.481
401.65	4.394
402.01	4.258
402.37	4.718
402.72	4.453
403.08	4.820
403.44	4.963
403.79	5.101
404.15	4.893
404.51	5.176
404.86	5.391
405.22	5.582
405.58	5.467
405.94	5.761
406.29	6.102
406.65	6.028
407.01	5.826
407.36	6.536
407.72	6.285
408.08	6.561
408.43	6.621
408.79	6.590
409.15	6.971
409.50	6.991
409.86	6.915
410.22	7.227
410.57	7.530
410.93	7.454
411.29	7.459
411.64	7.510
412.00	7.983
412.35	8.021
412.71	8.094
413.07	8.307
413.42	8.270
413.78	8.306
414.14	8.521
414.49	8.423
414.85	8.777
415.20	8.833
415.56	8.760
415.92	9.036
416.27	9.442
416.63	9.469
416.98	9.529
417.34	9.528
417.70	9.572
418.05	9.632
418.41	9.889
418.76	10.038
419.12	10.037
419.47	9.975
419.83	10.534
420.19	10.485
420.54	10.613
420.90	10.592
421.25	10.917
421.61	10.808
421.96	11.106
422.32	11.132
422.67	11.111
423.03	11.346
423.39	11.572
423.74	11.737
424.10	11.633
424.45	11.980
424.81	12.002
425.16	12.137
425.52	12.258
425.87	12.281
426.23	12.422
426.58	12.386
426.94	12.383
427.29	12.682
427.65	12.698
428.00	12.953
428.36	13.008
428.71	13.165
429.07	13.378
429.42	13.524
429.78	13.551
430.13	13.539
430.49	13.657
430.84	13.858
431.19	14.000
431.55	14.099
431.90	14.007
432.26	14.047
432.61	14.350
432.97	14.290
433.32	14.538
433.68	14.458
434.03	14.727
434.39	14.746
434.74	14.965
435.09	15.124
435.45	15.138
435.80	15.161
436.16	15.415
436.51	15.396
436.86	15.480
437.22	15.488
437.57	15.737
437.93	15.898
438.28	16.014
438.63	15.983
438.99	16.174
439.34	16.171
439.70	16.389
440.05	16.453
440.40	16.581
440.76	16.442
441.11	16.568
441.47	16.693
441.82	16.926
442.17	16.893
442.53	16.824
442.88	16.973
443.23	17.186
443.59	17.257
443.94	17.270
444.29	17.417
444.65	17.515
445.00	17.496
445.35	17.832
445.71	17.868
446.06	17.948
446.41	17.894
446.77	18.139
447.12	18.189
447.47	18.206
447.83	18.213
448.18	18.251
448.53	18.437
448.89	18.508
449.24	18.647
449.59	18.677
449.94	18.907
450.30	18.887
450.65	18.926
451.00	19.064
451.36	19.145
451.71	19.141
452.06	19.382
452.41	19.482
452.77	19.541
453.12	19.569
453.47	19.761
453.82	19.823
454.18	19.994
454.53	20.083
454.88	19.997
455.23	20.170
455.59	20.183
455.94	20.297
456.29	20.469
456.64	20.449
457.00	20.662
457.35	20.741
457.70	20.884
458.05	20.895
458.40	20.990
458.76	21.169
459.11	21.124
459.46	21.323
459.81	21.338
460.16	21.392
460.52	21.499
460.87	21.613
461.22	21.667
461.57	21.764
461.92	21.853
462.28	21.893
462.63	22.030
462.98	22.204
463.33	22.296
463.68	22.318
464.03	22.398
464.38	22.284
464.74	22.443
465.09	22.614
465.44	22.596
465.79	22.765
466.14	22.820
466.49	22.916
466.84	23.047
467.20	23.093
467.55	23.110
467.90	23.195
468.25	23.472
468.60	23.374
468.95	23.550
469.30	23.422
469.65	23.496
470.00	23.561
470.36	23.644
470.71	23.748
471.06	23.857
471.41	23.932
471.76	23.965
472.11	23.929
472.46	24.077
472.81	23.965
473.16	23.992
473.51	24.132
473.86	24.184
474.21	24.194
474.56	24.237
474.91	24.306
475.26	24.279
475.62	24.358
475.97	24.352
476.32	24.371
476.67	24.328
477.02	24.369
477.37	24.475
477.72	24.543
478.07	24.474
478.42	24.499
478.77	24.503
479.12	24.542
479.47	24.588
479.82	24.562
480.17	24.562
480.52	24.525
480.87	24.622
481.22	24.633
481.57	24.664
481.92	24.638
482.27	24.624
482.62	24.625
482.97	24.672
483.32	24.684
483.67	24.709
484.02	24.709
484.36	24.643
484.71	24.772
485.06	24.755
485.41	24.833
485.76	24.892
486.11	24.888
486.46	24.851
486.81	24.928
487.16	24.942
487.51	25.025
487.86	25.003
488.21	25.127
488.56	25.206
488.91	25.171
489.25	25.269
489.60	25.406
489.95	25.461
490.30	25.468
490.65	25.560
491.00	25.607
491.35	25.669
491.70	25.649
492.05	25.820
492.39	25.900
492.74	25.953
493.09	25.983
493.44	26.064
493.79	26.176
494.14	26.159
494.49	26.301
494.83	26.335
495.18	26.531
495.53	26.606
495.88	26.641
496.23	26.686
496.58	26.815
496.92	26.850
497.27	26.919
497.62	26.973
497.97	27.105
498.32	27.162
498.67	27.180
499.01	27.297
499.36	27.342
499.71	27.410
500.06	27.453
500.41	27.668
500.75	27.581
501.10	27.688
501.45	27.745
501.80	27.847
502.14	27.907
502.49	27.881
502.84	27.985
503.19	27.983
503.53	28.050
503.88	28.104
504.23	28.152
504.58	28.247
504.92	28.258
505.27	28.330
505.62	28.373
505.97	28.361
506.31	28.441
506.66	28.419
507.01	28.462
507.36	28.456
507.70	28.489
508.05	28.473
508.40	28.399
508.74	28.460
509.09	28.424
509.44	28.451
509.79	28.429
510.13	28.353
510.48	28.326
510.83	28.360
511.17	28.313
511.52	28.296
511.87	28.331
512.21	28.291
512.56	28.350
512.91	28.310
513.25	28.270
513.60	28.296
513.95	28.373
514.29	28.385
514.64	28.467
514.98	28.489
515.33	28.546
515.68	28.575
516.02	28.581
516.37	28.627
516.72	28.654
517.06	28.703
517.41	28.742
517.75	28.720
518.10	28.783
518.45	28.811
518.79	28.829
519.14	28.864
519.48	28.827
519.83	28.824
520.18	28.892
520.52	28.931
520.87	28.966
521.21	29.000
521.56	28.921
521.90	28.957
522.25	28.924
522.60	28.933
522.94	28.981
523.29	29.021
523.63	28.990
523.98	28.912
524.32	28.910
524.67	28.898
525.01	28.919
525.36	28.834
525.70	28.809
526.05	28.743
526.39	28.744
526.74	28.675
527.08	28.598
527.43	28.581
527.77	28.544
528.12	28.436
528.46	28.438
528.81	28.294
529.15	28.261
529.50	28.114
529.84	28.059
530.19	27.962
530.53	27.929
530.88	27.795
531.22	27.720
531.57	27.574
531.91	27.381
532.26	27.285
532.60	27.201
532.94	26.973
533.29	26.902
533.63	26.685
533.98	26.573
534.32	26.328
534.67	26.233
535.01	26.031
535.35	25.926
535.70	25.705
536.04	25.503
536.39	25.280
536.73	25.093
537.07	24.779
537.42	24.671
537.76	24.443
538.11	24.260
538.45	24.057
538.79	23.879
539.14	23.667
539.48	23.459
539.82	23.278
540.17	23.080
540.51	22.883
540.85	22.724
541.20	22.557
541.54	22.426
541.89	22.329
542.23	22.116
542.57	21.961
542.92	21.953
543.26	21.813
543.60	21.717
543.94	21.651
544.29	21.575
544.63	21.519
544.97	21.503
545.32	21.461
545.66	21.398
546.00	21.387
546.35	21.375
546.69	21.437
547.03	21.394
547.37	21.442
547.72	21.456
548.06	21.453
548.40	21.467
548.75	21.520
549.09	21.567
549.43	21.650
549.77	21.699
550.12	21.710
550.46	21.831
550.80	21.899
551.14	22.028
551.49	22.084
551.83	22.214
552.17	22.346
552.51	22.497
552.85	22.676
553.20	22.774
553.54	22.947
553.88	23.095
554.22	23.256
554.56	23.422
554.91	23.651
555.25	23.846
555.59	24.042
555.93	24.192
556.27	24.440
556.62	24.683
556.96	24.889
557.30	25.106
557.64	25.304
557.98	25.659
558.32	25.782
558.67	26.049
559.01	26.323
559.35	26.476
559.69	26.693
560.03	26.966
560.37	27.188
560.71	27.411
561.05	27.619
561.40	27.755
561.74	27.975
562.08	28.165
562.42	28.366
562.76	28.595
563.10	28.725
563.44	28.924
563.78	29.072
564.12	29.219
564.46	29.412
564.81	29.456
565.15	29.674
565.49	29.758
565.83	29.846
566.17	29.972
566.51	30.049
566.85	30.123
567.19	30.220
567.53	30.266
567.87	30.315
568.21	30.351
568.55	30.422
568.89	30.459
569.23	30.473
569.57	30.512
569.91	30.529
570.25	30.473
570.59	30.503
570.93	30.479
571.27	30.400
571.61	30.421
571.95	30.373
572.29	30.312
572.63	30.287
572.97	30.151
573.31	30.090
573.65	30.029
573.99	29.970
574.33	29.874
574.67	29.797
575.01	29.759
575.35	29.553
575.69	29.500
576.03	29.390
576.37	29.277
576.71	29.123
577.05	29.005
577.39	28.900
577.73	28.716
578.06	28.607
578.40	28.435
578.74	28.263
579.08	28.128
579.42	27.958
579.76	27.725
580.10	27.605
580.44	27.410
580.78	27.241
581.12	27.022
581.45	26.896
581.79	26.700
582.13	26.560
582.47	26.290
582.81	26.191
583.15	25.991
583.49	25.852
583.83	25.682
584.16	25.497
584.50	25.309
584.84	25.252
585.18	25.035
585.52	24.975
585.86	24.836
586.19	24.642
586.53	24.546
586.87	24.428
587.21	24.228
587.55	24.126
587.88	23.975
588.22	23.813
588.56	23.642
588.90	23.493
589.24	23.321
589.57	23.080
589.91	22.883
590.25	22.679
590.59	22.505
590.92	22.328
591.26	22.183
591.60	21.904
591.94	21.687
592.27	21.460
592.61	21.195
592.95	20.986
593.29	20.741
593.62	20.453
593.96	20.177
594.30	19.933
594.64	19.639
594.97	19.308
595.31	18.974
595.65	18.627
595.98	18.231
596.32	17.908
596.66	17.501
597.00	17.107
597.33	16.729
597.67	16.289
598.01	15.817
598.34	15.469
598.68	15.063
599.02	14.633
599.35	14.210
599.69	13.927
600.03	13.538
600.36	13.147
600.70	12.849
601.03	12.552
601.37	12.282
601.71	12.005
602.04	11.738
602.38	11.438
602.72	11.262
603.05	11.002
603.39	10.780
603.72	10.518
604.06	10.260
604.40	10.050
604.73	9.766
605.07	9.526
605.40	9.261
605.74	9.044
606.08	8.788
606.41	8.508
606.75	8.306
607.08	8.031
607.42	7.764
607.75	7.520
608.09	7.287
608.42	7.019
608.76	6.761
609.10	6.522
609.43	6.257
609.77	6.026
610.10	5.782
610.44	5.578
610.77	5.340
611.11	5.104
611.44	4.904
611.78	4.638
612.11	4.441
612.45	4.264
612.78	4.043
613.12	3.873
613.45	3.683
613.79	3.488
614.12	3.340
614.46	3.137
614.79	3.028
615.13	2.844
615.46	2.722
615.79	2.605
616.13	2.451
616.46	2.374
616.80	2.280
617.13	2.148
617.47	2.067
617.80	1.999
618.13	1.919
618.47	1.818
618.80	1.749
619.14	1.721
619.47	1.628
619.81	1.570
620.14	1.535
620.47	1.476
620.81	1.416
621.14	1.355
621.47	1.323
621.81	1.299
622.14	1.250
622.48	1.206
622.81	1.176
623.14	1.157
623.48	1.137
623.81	1.089
624.14	1.075
624.48	1.035
624.81	0.995
625.14	0.999
625.48	0.981
625.81	0.959
626.14	0.982
626.48	0.977
626.81	0.943
627.14	0.973
627.48	0.961
627.81	0.987
628.14	1.000
628.47	1.016
628.81	1.026
629.14	1.065
629.47	1.085
629.81	1.123
630.14	1.135
630.47	1.170
630.80	1.242
631.14	1.292
631.47	1.335
631.80	1.405
