SpectraSuite Data File
++++++++++++++++++++++++++++++++++++
Date: Mon Apr 20 20:30:07 BST 2015
User: mpfc3
Dark Spectrum Present: No
Reference Spectrum Present: No
Number of Sampled Component Spectra: 1
Spectrometers: USB2E3636
Integration Time (usec): 30000 (USB2E3636)
Spectra Averaged: 100 (USB2E3636)
Boxcar Smoothing: 0 (USB2E3636)
Correct for Electrical Dark: No (USB2E3636)
Strobe/Lamp Enabled: No (USB2E3636)
Correct for Detector Non-linearity: No (USB2E3636)
Correct for Stray Light: No (USB2E3636)
Number of Pixels in Processed Spectrum: 2048
>>>>>Begin Processed Spectral Data<<<<<
180.28	0.00
180.65	170.40
181.02	171.03
181.39	172.04
181.77	173.02
182.14	174.23
182.51	174.94
182.88	175.61
183.25	175.84
183.63	175.96
184.00	176.51
184.37	177.41
184.74	176.53
185.11	176.37
185.49	176.65
185.86	176.40
186.23	176.84
186.60	176.72
186.97	176.44
187.35	176.01
187.72	176.66
188.09	176.78
188.46	176.67
188.83	176.36
189.20	176.42
189.58	176.62
189.95	176.32
190.32	176.80
190.69	177.17
191.06	176.29
191.43	176.83
191.81	176.69
192.18	176.99
192.55	176.84
192.92	176.63
193.29	177.29
193.66	177.00
194.03	177.17
194.41	176.72
194.78	177.11
195.15	176.93
195.52	177.05
195.89	177.29
196.26	177.71
196.63	177.19
197.01	177.71
197.38	177.39
197.75	177.73
198.12	177.34
198.49	177.45
198.86	177.64
199.23	177.49
199.60	177.57
199.98	177.39
200.35	177.64
200.72	177.86
201.09	178.26
201.46	177.68
201.83	177.85
202.20	177.96
202.57	177.97
202.94	178.22
203.31	178.00
203.69	177.89
204.06	178.29
204.43	177.76
204.80	178.14
205.17	178.04
205.54	178.36
205.91	178.12
206.28	178.53
206.65	178.05
207.02	178.11
207.39	178.30
207.76	178.19
208.14	178.52
208.51	178.57
208.88	178.45
209.25	178.18
209.62	178.52
209.99	178.48
210.36	178.27
210.73	178.34
211.10	178.88
211.47	178.21
211.84	178.82
212.21	178.64
212.58	178.09
212.95	178.65
213.32	178.90
213.69	178.82
214.06	178.84
214.43	178.76
214.80	178.13
215.17	179.14
215.55	178.76
215.92	178.57
216.29	178.80
216.66	179.06
217.03	178.82
217.40	178.46
217.77	179.16
218.14	178.78
218.51	178.63
218.88	179.35
219.25	179.13
219.62	178.84
219.99	179.34
220.36	178.95
220.73	179.92
221.10	179.68
221.47	179.30
221.84	179.30
222.21	179.49
222.58	178.91
222.95	179.38
223.32	179.02
223.69	179.20
224.06	179.16
224.43	179.02
224.80	179.17
225.17	179.55
225.54	178.64
225.91	179.15
226.27	186.06
226.64	179.28
227.01	179.63
227.38	179.72
227.75	179.30
228.12	179.71
228.49	179.83
228.86	179.26
229.23	179.50
229.60	179.49
229.97	179.51
230.34	179.75
230.71	179.69
231.08	179.63
231.45	179.42
231.82	179.44
232.19	179.30
232.56	179.45
232.93	179.21
233.30	179.05
233.66	180.03
234.03	179.86
234.40	179.73
234.77	179.23
235.14	179.44
235.51	179.49
235.88	179.44
236.25	179.53
236.62	180.34
236.99	179.61
237.36	180.28
237.73	179.51
238.09	179.88
238.46	179.68
238.83	179.50
239.20	179.87
239.57	179.69
239.94	179.58
240.31	179.58
240.68	179.92
241.05	179.48
241.41	179.78
241.78	179.46
242.15	179.81
242.52	179.56
242.89	180.17
243.26	179.84
243.63	179.86
244.00	179.86
244.36	179.68
244.73	179.65
245.10	179.81
245.47	179.96
245.84	179.99
246.21	180.20
246.58	180.07
246.94	179.80
247.31	179.75
247.68	179.61
248.05	179.69
248.42	179.51
248.79	180.14
249.15	179.47
249.52	179.95
249.89	179.97
250.26	180.90
250.63	179.92
251.00	180.23
251.36	179.93
251.73	179.80
252.10	180.76
252.47	179.85
252.84	180.41
253.20	179.49
253.57	179.90
253.94	180.13
254.31	179.53
254.68	180.00
255.05	180.18
255.41	180.00
255.78	180.02
256.15	179.95
256.52	179.83
256.88	180.08
257.25	179.73
257.62	179.53
257.99	179.82
258.36	180.23
258.72	179.92
259.09	180.18
259.46	179.69
259.83	179.95
260.19	180.14
260.56	180.13
260.93	179.55
261.30	180.11
261.67	180.14
262.03	179.83
262.40	180.27
262.77	180.24
263.14	180.19
263.50	180.29
263.87	180.04
264.24	180.31
264.61	180.20
264.97	179.95
265.34	179.87
265.71	179.94
266.07	180.01
266.44	180.27
266.81	179.98
267.18	180.18
267.54	180.61
267.91	180.69
268.28	179.84
268.64	180.17
269.01	180.11
269.38	179.95
269.75	180.47
270.11	180.12
270.48	180.32
270.85	179.76
271.21	180.07
271.58	180.29
271.95	180.17
272.32	180.64
272.68	179.86
273.05	179.90
273.42	180.10
273.78	179.93
274.15	180.37
274.52	179.98
274.88	179.48
275.25	180.27
275.62	179.77
275.98	180.12
276.35	180.00
276.72	180.71
277.08	179.98
277.45	180.41
277.82	180.44
278.18	180.01
278.55	179.79
278.92	180.21
279.28	179.96
279.65	180.02
280.01	180.54
280.38	180.24
280.75	180.23
281.11	179.82
281.48	180.22
281.85	180.35
282.21	179.94
282.58	179.74
282.95	180.16
283.31	180.30
283.68	179.81
284.04	179.92
284.41	180.62
284.78	180.12
285.14	182.07
285.51	181.16
285.87	180.12
286.24	180.35
286.61	179.89
286.97	179.55
287.34	180.32
287.70	180.03
288.07	180.03
288.44	179.56
288.80	180.36
289.17	179.68
289.53	180.11
289.90	180.66
290.26	180.05
290.63	180.34
291.00	180.74
291.36	180.08
291.73	180.23
292.09	180.47
292.46	179.76
292.82	179.99
293.19	180.47
293.56	179.76
293.92	179.76
294.29	179.72
294.65	180.43
295.02	180.06
295.38	179.95
295.75	180.27
296.11	180.14
296.48	180.32
296.84	180.25
297.21	179.79
297.57	180.25
297.94	180.84
298.30	179.55
298.67	180.11
299.04	180.20
299.40	179.90
299.77	180.32
300.13	179.98
300.50	179.78
300.86	179.91
301.23	180.22
301.59	179.92
301.96	179.97
302.32	180.30
302.69	180.08
303.05	180.04
303.42	179.33
303.78	179.80
304.14	180.18
304.51	180.24
304.87	179.98
305.24	180.18
305.60	179.91
305.97	180.38
306.33	180.35
306.70	179.90
307.06	180.11
307.43	180.55
307.79	179.57
308.16	179.70
308.52	179.93
308.88	180.00
309.25	179.81
309.61	179.74
309.98	180.09
310.34	179.61
310.71	180.12
311.07	179.54
311.44	180.07
311.80	179.84
312.16	180.10
312.53	179.90
312.89	179.95
313.26	180.28
313.62	179.49
313.98	179.83
314.35	179.61
314.71	180.49
315.08	180.20
315.44	180.29
315.80	179.71
316.17	179.52
316.53	181.09
316.90	179.94
317.26	180.07
317.62	179.65
317.99	179.35
318.35	180.28
318.72	179.72
319.08	179.99
319.44	179.99
319.81	179.23
320.17	180.21
320.53	179.94
320.90	179.70
321.26	179.59
321.62	180.69
321.99	179.88
322.35	180.82
322.72	179.89
323.08	179.54
323.44	179.69
323.81	180.23
324.17	179.87
324.53	179.75
324.90	180.02
325.26	180.02
325.62	179.94
325.99	179.93
326.35	179.71
326.71	180.12
327.08	179.37
327.44	180.04
327.80	179.73
328.16	180.73
328.53	179.58
328.89	179.72
329.25	179.85
329.62	179.65
329.98	179.94
330.34	179.47
330.71	179.35
331.07	180.16
331.43	179.17
331.79	179.65
332.16	179.41
332.52	179.94
332.88	179.36
333.24	179.86
333.61	179.57
333.97	179.57
334.33	179.62
334.70	179.49
335.06	179.23
335.42	179.58
335.78	180.65
336.15	179.85
336.51	179.67
336.87	179.96
337.23	179.70
337.60	179.95
337.96	179.22
338.32	179.74
338.68	179.46
339.04	179.34
339.41	180.09
339.77	180.44
340.13	179.65
340.49	179.51
340.86	179.59
341.22	179.46
341.58	179.49
341.94	179.89
342.30	179.24
342.67	179.45
343.03	179.40
343.39	179.45
343.75	179.39
344.11	179.64
344.48	179.76
344.84	179.80
345.20	179.32
345.56	179.68
345.92	179.17
346.28	179.99
346.65	180.47
347.01	179.57
347.37	179.48
347.73	179.65
348.09	179.34
348.45	179.75
348.82	179.66
349.18	179.58
349.54	179.10
349.90	178.99
350.26	179.21
350.62	179.36
350.98	178.95
351.35	179.23
351.71	179.46
352.07	179.22
352.43	179.35
352.79	179.73
353.15	179.86
353.51	180.14
353.87	179.52
354.24	179.38
354.60	179.58
354.96	178.97
355.32	179.55
355.68	179.16
356.04	179.18
356.40	179.55
356.76	179.40
357.12	179.15
357.48	179.21
357.85	179.70
358.21	179.48
358.57	179.53
358.93	179.36
359.29	179.10
359.65	179.17
360.01	179.27
360.37	179.41
360.73	179.07
361.09	179.28
361.45	179.66
361.81	179.31
362.17	179.35
362.53	179.35
362.89	179.28
363.25	178.84
363.62	179.12
363.98	179.19
364.34	180.10
364.70	179.10
365.06	179.26
365.42	179.01
365.78	178.89
366.14	179.31
366.50	179.13
366.86	179.61
367.22	179.28
367.58	179.25
367.94	179.19
368.30	179.17
368.66	179.26
369.02	180.19
369.38	179.33
369.74	178.80
370.10	178.85
370.46	179.89
370.82	179.64
371.18	179.18
371.54	178.98
371.90	179.42
372.26	179.82
372.62	179.83
372.98	179.56
373.33	179.38
373.69	179.22
374.05	179.10
374.41	179.23
374.77	179.56
375.13	179.07
375.49	179.12
375.85	178.89
376.21	179.43
376.57	179.54
376.93	178.59
377.29	179.11
377.65	178.97
378.01	179.20
378.37	179.11
378.73	179.26
379.08	178.89
379.44	179.17
379.80	179.22
380.16	179.40
380.52	179.42
380.88	179.33
381.24	178.97
381.60	178.88
381.96	178.96
382.32	178.94
382.67	178.54
383.03	179.10
383.39	178.76
383.75	179.34
384.11	179.13
384.47	179.28
384.83	179.18
385.19	179.45
385.54	178.32
385.90	179.35
386.26	178.88
386.62	178.90
386.98	178.82
387.34	178.66
387.70	178.83
388.05	179.07
388.41	178.67
388.77	179.58
389.13	178.56
389.49	179.73
389.85	178.98
390.20	179.25
390.56	179.33
390.92	179.03
391.28	178.86
391.64	179.33
391.99	179.47
392.35	179.26
392.71	178.81
393.07	178.51
393.43	179.28
393.78	179.41
394.14	178.57
394.50	178.98
394.86	179.00
395.22	179.20
395.57	178.61
395.93	179.13
396.29	178.92
396.65	179.07
397.00	178.89
397.36	179.39
397.72	178.89
398.08	179.00
398.43	179.22
398.79	179.41
399.15	178.54
399.51	178.94
399.86	178.94
400.22	178.50
400.58	178.79
400.94	178.91
401.29	178.92
401.65	179.26
402.01	179.30
402.37	178.36
402.72	178.92
403.08	179.74
403.44	179.58
403.79	178.82
404.15	179.06
404.51	179.56
404.86	179.19
405.22	178.94
405.58	179.63
405.94	179.25
406.29	178.80
406.65	179.13
407.01	179.01
407.36	178.90
407.72	178.94
408.08	178.55
408.43	178.91
408.79	178.89
409.15	179.36
409.50	179.11
409.86	179.00
410.22	179.21
410.57	179.04
410.93	178.70
411.29	180.07
411.64	179.19
412.00	179.18
412.35	179.34
412.71	179.06
413.07	179.46
413.42	179.46
413.78	178.91
414.14	179.16
414.49	179.20
414.85	179.44
415.20	178.75
415.56	178.69
415.92	178.52
416.27	178.98
416.63	179.06
416.98	179.16
417.34	179.36
417.70	178.78
418.05	178.59
418.41	179.00
418.76	178.72
419.12	178.89
419.47	178.62
419.83	179.36
420.19	179.12
420.54	178.82
420.90	179.09
421.25	179.01
421.61	179.22
421.96	178.66
422.32	179.11
422.67	179.07
423.03	178.73
423.39	178.91
423.74	178.71
424.10	179.32
424.45	178.67
424.81	179.05
425.16	179.18
425.52	178.61
425.87	178.75
426.23	178.67
426.58	178.86
426.94	179.12
427.29	179.02
427.65	178.94
428.00	178.82
428.36	179.06
428.71	178.91
429.07	178.40
429.42	178.34
429.78	179.06
430.13	178.78
430.49	179.04
430.84	178.89
431.19	178.50
431.55	179.15
431.90	178.88
432.26	179.08
432.61	179.09
432.97	179.28
433.32	180.14
433.68	178.62
434.03	179.20
434.39	179.38
434.74	178.45
435.09	178.77
435.45	178.53
435.80	178.83
436.16	178.55
436.51	178.80
436.86	178.87
437.22	178.98
437.57	179.58
437.93	179.05
438.28	178.70
438.63	179.21
438.99	178.64
439.34	179.17
439.70	179.71
440.05	178.80
440.40	178.69
440.76	178.93
441.11	178.74
441.47	178.71
441.82	178.86
442.17	178.76
442.53	178.80
442.88	178.89
443.23	178.64
443.59	178.75
443.94	179.41
444.29	178.83
444.65	178.90
445.00	178.90
445.35	178.34
445.71	178.39
446.06	178.80
446.41	178.96
446.77	178.66
447.12	178.23
447.47	178.83
447.83	178.65
448.18	178.64
448.53	178.47
448.89	178.56
449.24	178.36
449.59	178.72
449.94	179.04
450.30	178.84
450.65	179.46
451.00	178.72
451.36	178.70
451.71	178.58
452.06	178.90
452.41	178.92
452.77	178.52
453.12	178.72
453.47	179.09
453.82	179.43
454.18	178.80
454.53	178.45
454.88	178.79
455.23	178.58
455.59	178.85
455.94	178.36
456.29	178.86
456.64	178.62
457.00	178.52
457.35	178.54
457.70	178.21
458.05	178.58
458.40	178.68
458.76	178.33
459.11	178.86
459.46	178.64
459.81	178.69
460.16	178.62
460.52	178.53
460.87	178.60
461.22	178.42
461.57	178.65
461.92	178.30
462.28	179.16
462.63	179.06
462.98	178.48
463.33	178.03
463.68	179.33
464.03	179.07
464.38	178.60
464.74	178.53
465.09	178.79
465.44	178.41
465.79	178.74
466.14	178.92
466.49	178.41
466.84	178.60
467.20	178.77
467.55	178.85
467.90	178.47
468.25	179.19
468.60	178.70
468.95	178.88
469.30	178.19
469.65	178.79
470.00	178.54
470.36	178.80
470.71	178.93
471.06	178.32
471.41	178.67
471.76	178.77
472.11	177.85
472.46	178.67
472.81	178.64
473.16	178.50
473.51	178.40
473.86	178.16
474.21	178.30
474.56	179.87
474.91	178.77
475.26	178.49
475.62	178.53
475.97	179.57
476.32	178.55
476.67	178.43
477.02	178.91
477.37	178.74
477.72	178.77
478.07	178.71
478.42	178.05
478.77	178.47
479.12	178.30
479.47	177.91
479.82	178.67
480.17	178.79
480.52	178.46
480.87	178.84
481.22	178.38
481.57	178.34
481.92	178.61
482.27	178.45
482.62	178.79
482.97	178.74
483.32	178.77
483.67	178.25
484.02	178.83
484.36	178.35
484.71	178.39
485.06	178.82
485.41	178.33
485.76	178.10
486.11	178.75
486.46	178.42
486.81	178.65
487.16	178.49
487.51	178.36
487.86	178.63
488.21	178.59
488.56	178.57
488.91	178.30
489.25	179.15
489.60	178.64
489.95	177.83
490.30	178.29
490.65	178.48
491.00	177.95
491.35	178.54
491.70	178.78
492.05	178.68
492.39	178.80
492.74	178.49
493.09	178.54
493.44	178.42
493.79	178.40
494.14	178.30
494.49	178.60
494.83	178.39
495.18	178.29
495.53	178.79
495.88	178.29
496.23	178.48
496.58	178.35
496.92	178.51
497.27	178.37
497.62	178.37
497.97	178.59
498.32	178.82
498.67	178.83
499.01	178.70
499.36	178.88
499.71	178.70
500.06	178.47
500.41	178.33
500.75	178.40
501.10	178.68
501.45	179.23
501.80	178.27
502.14	178.41
502.49	178.30
502.84	179.06
503.19	178.50
503.53	179.37
503.88	178.66
504.23	178.66
504.58	178.50
504.92	178.66
505.27	178.65
505.62	178.64
505.97	179.01
506.31	178.22
506.66	178.48
507.01	178.32
507.36	178.54
507.70	178.59
508.05	178.23
508.40	178.69
508.74	178.65
509.09	178.77
509.44	178.41
509.79	178.51
510.13	178.46
510.48	178.78
510.83	178.49
511.17	178.70
511.52	178.66
511.87	178.14
512.21	178.33
512.56	178.40
512.91	178.42
513.25	177.93
513.60	178.24
513.95	178.51
514.29	178.66
514.64	178.64
514.98	178.34
515.33	178.17
515.68	178.52
516.02	178.52
516.37	178.57
516.72	178.32
517.06	178.38
517.41	178.22
517.75	178.75
518.10	178.51
518.45	178.59
518.79	178.05
519.14	178.67
519.48	179.44
519.83	178.54
520.18	178.30
520.52	178.73
520.87	178.61
521.21	178.74
521.56	178.60
521.90	178.66
522.25	178.62
522.60	178.12
522.94	179.19
523.29	178.74
523.63	177.93
523.98	178.40
524.32	178.04
524.67	178.42
525.01	178.66
525.36	178.25
525.70	177.95
526.05	178.38
526.39	179.13
526.74	178.34
527.08	178.43
527.43	178.31
527.77	178.54
528.12	178.25
528.46	178.56
528.81	178.69
529.15	178.47
529.50	179.06
529.84	178.40
530.19	178.54
530.53	178.61
530.88	177.94
531.22	177.98
531.57	178.67
531.91	178.19
532.26	178.17
532.60	178.32
532.94	178.53
533.29	178.48
533.63	178.33
533.98	178.37
534.32	179.43
534.67	178.08
535.01	178.38
535.35	178.52
535.70	178.24
536.04	178.25
536.39	178.12
536.73	178.40
537.07	177.94
537.42	178.19
537.76	178.09
538.11	178.35
538.45	178.44
538.79	177.84
539.14	178.93
539.48	178.85
539.82	178.27
540.17	178.25
540.51	178.76
540.85	178.65
541.20	178.42
541.54	178.93
541.89	178.26
542.23	178.25
542.57	178.12
542.92	177.94
543.26	178.63
543.60	178.33
543.94	178.34
544.29	178.33
544.63	178.20
544.97	178.91
545.32	178.29
545.66	178.50
546.00	178.86
546.35	178.67
546.69	178.72
547.03	177.87
547.37	178.39
547.72	178.44
548.06	178.46
548.40	178.02
548.75	178.38
549.09	178.08
549.43	178.63
549.77	178.19
550.12	178.29
550.46	178.59
550.80	178.22
551.14	178.13
551.49	177.90
551.83	178.34
552.17	178.04
552.51	178.12
552.85	178.32
553.20	178.16
553.54	178.60
553.88	178.43
554.22	178.18
554.56	178.28
554.91	178.13
555.25	178.29
555.59	178.40
555.93	178.27
556.27	178.07
556.62	178.78
556.96	178.31
557.30	178.66
557.64	178.15
557.98	178.91
558.32	178.86
558.67	178.18
559.01	178.45
559.35	178.31
559.69	178.26
560.03	178.03
560.37	177.99
560.71	178.60
561.05	178.10
561.40	177.89
561.74	177.96
562.08	178.43
562.42	178.28
562.76	178.40
563.10	178.71
563.44	178.48
563.78	178.53
564.12	178.68
564.46	178.59
564.81	179.01
565.15	178.31
565.49	178.33
565.83	178.25
566.17	178.41
566.51	178.07
566.85	178.42
567.19	178.81
567.53	178.46
567.87	178.00
568.21	178.19
568.55	178.41
568.89	177.68
569.23	178.36
569.57	178.15
569.91	178.72
570.25	178.62
570.59	177.90
570.93	177.96
571.27	178.78
571.61	178.38
571.95	178.58
572.29	178.59
572.63	178.49
572.97	179.00
573.31	178.44
573.65	177.92
573.99	179.05
574.33	178.02
574.67	178.45
575.01	178.56
575.35	178.31
575.69	178.36
576.03	178.02
576.37	178.46
576.71	178.26
577.05	178.15
577.39	178.65
577.73	177.93
578.06	178.40
578.40	178.32
578.74	178.34
579.08	178.42
579.42	178.31
579.76	177.91
580.10	178.79
580.44	178.16
580.78	178.51
581.12	177.99
581.45	178.51
581.79	178.42
582.13	178.57
582.47	178.20
582.81	178.26
583.15	178.41
583.49	178.41
583.83	178.46
584.16	178.66
584.50	178.04
584.84	178.50
585.18	178.53
585.52	178.34
585.86	178.28
586.19	178.51
586.53	178.29
586.87	178.23
587.21	178.04
587.55	178.40
587.88	178.05
588.22	178.52
588.56	177.70
588.90	178.20
589.24	178.73
589.57	178.15
589.91	178.73
590.25	177.95
590.59	178.53
590.92	178.37
591.26	177.98
591.60	178.48
591.94	178.12
592.27	178.47
592.61	178.59
592.95	177.63
593.29	177.85
593.62	178.25
593.96	178.46
594.30	178.43
594.64	178.39
594.97	178.79
595.31	178.91
595.65	178.22
595.98	177.79
596.32	178.31
596.66	178.30
597.00	178.71
597.33	178.77
597.67	178.11
598.01	178.11
598.34	178.04
598.68	178.70
599.02	178.30
599.35	178.27
599.69	178.04
600.03	179.02
600.36	178.75
600.70	177.89
601.03	178.53
601.37	178.00
601.71	179.33
602.04	178.45
602.38	177.90
602.72	178.45
603.05	179.00
603.39	178.24
603.72	178.25
604.06	178.12
604.40	178.62
604.73	178.15
605.07	178.20
605.40	178.69
605.74	178.29
606.08	178.11
606.41	178.45
606.75	178.22
607.08	178.40
607.42	178.27
607.75	178.51
608.09	178.66
608.42	178.46
608.76	178.38
609.10	178.34
609.43	178.55
609.77	178.10
610.10	178.45
610.44	178.29
610.77	178.14
611.11	178.60
611.44	178.67
611.78	178.25
612.11	178.31
612.45	178.56
612.78	178.16
613.12	178.16
613.45	178.45
613.79	178.55
614.12	178.12
614.46	177.72
614.79	177.82
615.13	178.45
615.46	178.45
615.79	178.13
616.13	178.86
616.46	178.04
616.80	178.39
617.13	178.42
617.47	178.29
617.80	177.96
618.13	178.46
618.47	178.14
618.80	178.66
619.14	178.09
619.47	178.18
619.81	178.55
620.14	178.41
620.47	178.00
620.81	178.52
621.14	178.31
621.47	178.61
621.81	178.67
622.14	178.70
622.48	177.99
622.81	178.17
623.14	178.04
623.48	178.50
623.81	178.12
624.14	178.53
624.48	177.75
624.81	178.81
625.14	178.47
625.48	179.06
625.81	178.76
626.14	177.97
626.48	178.18
626.81	177.71
627.14	178.51
627.48	178.25
627.81	178.32
628.14	179.13
628.47	179.38
628.81	178.20
629.14	177.73
629.47	178.17
629.81	178.59
630.14	177.97
630.47	177.94
630.80	178.35
631.14	178.00
631.47	178.50
631.80	178.04
632.13	178.58
632.47	178.19
632.80	178.10
633.13	178.50
633.46	178.35
633.79	178.11
634.13	178.39
634.46	178.59
634.79	178.66
635.12	178.28
635.45	177.82
635.79	177.77
636.12	177.94
636.45	178.60
636.78	178.50
637.11	178.39
637.45	178.30
637.78	177.89
638.11	179.09
