SpectraSuite Data File
++++++++++++++++++++++++++++++++++++
Date: Mon Apr 20 20:46:32 BST 2015
User: mpfc3
Dark Spectrum Present: Yes
Reference Spectrum Present: Yes
Number of Sampled Component Spectra: 1
Spectrometers: USB2E3636
Integration Time (usec): 30000 (USB2E3636)
Spectra Averaged: 100 (USB2E3636)
Boxcar Smoothing: 0 (USB2E3636)
Correct for Electrical Dark: No (USB2E3636)
Strobe/Lamp Enabled: No (USB2E3636)
Correct for Detector Non-linearity: No (USB2E3636)
Correct for Stray Light: No (USB2E3636)
Number of Pixels in Processed Spectrum: 2048
>>>>>Begin Processed Spectral Data<<<<<
180.28	0.000
180.65	265.055
181.02	236.538
181.39	239.235
181.77	253.812
182.14	255.338
182.51	262.192
182.88	265.265
183.25	258.811
183.63	237.002
184.00	246.089
184.37	236.646
184.74	245.291
185.11	263.781
185.49	269.767
185.86	218.250
186.23	281.948
186.60	260.532
186.97	270.413
187.35	252.826
187.72	273.684
188.09	218.416
188.46	245.397
188.83	223.320
189.20	-2618.605
189.58	-67.437
189.95	-66.123
190.32	-69.705
190.69	-60.881
191.06	-70.596
191.43	-72.416
191.81	-64.964
192.18	-67.154
192.55	-70.468
192.92	-62.850
193.29	-61.492
193.66	-66.580
194.03	-65.793
194.41	-64.966
194.78	-71.369
195.15	-66.802
195.52	-65.415
195.89	-68.763
196.26	-70.027
196.63	-72.555
197.01	-63.981
197.38	-71.797
197.75	-61.871
198.12	-63.552
198.49	-67.030
198.86	-56.628
199.23	-71.923
199.60	-64.729
199.98	-72.640
200.35	-64.148
200.72	-66.712
201.09	-75.090
201.46	-73.375
201.83	-71.938
202.20	-64.286
202.57	-74.021
202.94	-70.686
203.31	-63.992
203.69	-67.164
204.06	-63.984
204.43	-68.392
204.80	-72.483
205.17	-72.442
205.54	-73.103
205.91	-73.889
206.28	-70.816
206.65	-75.036
207.02	-74.982
207.39	-69.073
207.76	-71.530
208.14	-70.792
208.51	-66.463
208.88	-70.113
209.25	-66.836
209.62	-76.648
209.99	-73.568
210.36	-70.737
210.73	-79.424
211.10	-80.737
211.47	-72.443
211.84	-66.784
212.21	-76.577
212.58	-76.335
212.95	-78.123
213.32	-76.422
213.69	-70.297
214.06	-68.768
214.43	-72.813
214.80	-81.712
215.17	-81.662
215.55	-77.596
215.92	-78.412
216.29	-71.470
216.66	-70.276
217.03	-78.956
217.40	-75.168
217.77	-75.926
218.14	-82.820
218.51	-82.059
218.88	-81.156
219.25	-69.203
219.62	-78.805
219.99	-85.226
220.36	-76.502
220.73	-78.744
221.10	-74.102
221.47	-80.709
221.84	-91.264
222.21	-93.503
222.58	-88.026
222.95	-83.620
223.32	-82.478
223.69	-82.160
224.06	-81.675
224.43	-76.807
224.80	-78.972
225.17	-94.415
225.54	-80.387
225.91	-78.230
226.27	-67.221
226.64	-86.041
227.01	-82.566
227.38	-94.892
227.75	-90.035
228.12	-81.601
228.49	-86.712
228.86	-88.820
229.23	-92.037
229.60	-88.178
229.97	-86.550
230.34	-86.248
230.71	-91.704
231.08	-96.403
231.45	-88.522
231.82	-82.918
232.19	-94.283
232.56	-91.051
232.93	-100.375
233.30	-95.098
233.66	-94.898
234.03	-91.527
234.40	-84.771
234.77	-87.040
235.14	-90.984
235.51	-96.343
235.88	-103.263
236.25	-97.029
236.62	-90.018
236.99	-95.941
237.36	-92.280
237.73	-96.848
238.09	-93.862
238.46	-93.266
238.83	-92.105
239.20	-98.984
239.57	-89.344
239.94	-93.928
240.31	-87.649
240.68	-93.596
241.05	-110.765
241.41	-95.636
241.78	-106.046
242.15	-96.384
242.52	-98.860
242.89	-109.043
243.26	-102.015
243.63	-84.107
244.00	-110.385
244.36	-86.704
244.73	-97.096
245.10	-98.489
245.47	-90.270
245.84	-94.455
246.21	-104.183
246.58	-97.751
246.94	-96.819
247.31	-107.754
247.68	-102.467
248.05	-106.834
248.42	-110.352
248.79	-110.438
249.15	-108.802
249.52	-105.005
249.89	-107.158
250.26	-103.700
250.63	-110.699
251.00	-106.410
251.36	-99.398
251.73	-103.539
252.10	-111.111
252.47	-112.223
252.84	-108.936
253.20	-106.141
253.57	-100.000
253.94	-112.292
254.31	-95.382
254.68	-108.448
255.05	-107.983
255.41	-102.396
255.78	-113.012
256.15	-103.434
256.52	-107.256
256.88	-111.170
257.25	-118.454
257.62	-110.054
257.99	-107.963
258.36	-109.052
258.72	-119.132
259.09	-114.807
259.46	-135.060
259.83	-112.031
260.19	-102.947
260.56	-118.246
260.93	-111.479
261.30	-113.740
261.67	-133.708
262.03	-112.177
262.40	-110.776
262.77	-120.291
263.14	-126.316
263.50	-112.225
263.87	-125.772
264.24	-111.296
264.61	-124.567
264.97	-116.049
265.34	-113.097
265.71	-119.448
266.07	-110.773
266.44	-123.630
266.81	-124.740
267.18	-111.136
267.54	-114.769
267.91	-115.982
268.28	-122.368
268.64	-113.843
269.01	-104.496
269.38	-122.497
269.75	-123.687
270.11	-135.294
270.48	-124.940
270.85	-105.451
271.21	-118.692
271.58	-121.591
271.95	-120.810
272.32	-111.272
272.68	-110.234
273.05	-126.818
273.42	-117.667
273.78	-111.758
274.15	-125.860
274.52	-110.268
274.88	-122.626
275.25	-118.673
275.62	-108.571
275.98	-108.278
276.35	-108.452
276.72	-107.320
277.08	-121.321
277.45	-114.667
277.82	-120.140
278.18	-109.372
278.55	-117.297
278.92	-116.549
279.28	-104.901
279.65	-117.249
280.01	-120.541
280.38	-118.243
280.75	-120.516
281.11	-121.580
281.48	-118.213
281.85	-126.683
282.21	-123.458
282.58	-113.972
282.95	-125.852
283.31	-119.930
283.68	-118.046
284.04	-99.277
284.41	-125.943
284.78	-116.743
285.14	-111.711
285.51	-109.539
285.87	-114.027
286.24	-113.326
286.61	-126.284
286.97	-111.388
287.34	-135.238
287.70	-120.917
288.07	-105.222
288.44	-119.911
288.80	-118.591
289.17	-113.155
289.53	-109.041
289.90	-112.955
290.26	-129.820
290.63	-104.008
291.00	-128.242
291.36	-103.365
291.73	-100.415
292.09	-109.702
292.46	-108.259
292.82	-113.393
293.19	-116.533
293.56	-116.804
293.92	-112.279
294.29	-117.744
294.65	-110.764
295.02	-115.566
295.38	-126.969
295.75	-107.273
296.11	-109.241
296.48	-102.578
296.84	-114.351
297.21	-131.925
297.57	-119.490
297.94	-119.317
298.30	-112.975
298.67	-110.265
299.04	-125.647
299.40	-107.816
299.77	-112.621
300.13	-117.087
300.50	-109.053
300.86	-114.944
301.23	-104.834
301.59	-101.816
301.96	-129.520
302.32	-117.486
302.69	-116.336
303.05	-99.490
303.42	-105.491
303.78	-102.857
304.14	-104.782
304.51	-105.521
304.87	-122.299
305.24	-94.651
305.60	-100.100
305.97	-92.574
306.33	-102.880
306.70	-87.571
307.06	-90.926
307.43	-93.207
307.79	-102.477
308.16	-90.029
308.52	-104.325
308.88	-119.420
309.25	-96.000
309.61	-95.035
309.98	-108.792
310.34	-105.065
310.71	-98.427
311.07	-97.817
311.44	-102.064
311.80	-92.989
312.16	-97.251
312.53	-99.317
312.89	-96.214
313.26	-92.125
313.62	-97.544
313.98	-88.525
314.35	-100.939
314.71	-94.884
315.08	-98.274
315.44	-100.574
315.80	-95.211
316.17	-87.648
316.53	-85.411
316.90	-84.602
317.26	-101.139
317.62	-86.099
317.99	-83.616
318.35	-83.102
318.72	-81.061
319.08	-82.013
319.44	-94.293
319.81	-79.299
320.17	-78.043
320.53	-84.228
320.90	-73.165
321.26	-72.490
321.62	-73.281
321.99	-81.216
322.35	-72.795
322.72	-74.548
323.08	-73.112
323.44	-72.102
323.81	-72.802
324.17	-77.328
324.53	-75.345
324.90	-71.429
325.26	-70.446
325.62	-68.091
325.99	-80.874
326.35	-65.895
326.71	-71.507
327.08	-56.620
327.44	-67.550
327.80	-63.394
328.16	-64.792
328.53	-68.484
328.89	-73.160
329.25	-69.236
329.62	-51.385
329.98	-49.895
330.34	-59.334
330.71	-57.383
331.07	-57.448
331.43	-51.715
331.79	-48.262
332.16	-54.188
332.52	-49.446
332.88	-54.770
333.24	-51.528
333.61	-51.145
333.97	-48.384
334.33	-49.552
334.70	-46.368
335.06	-47.715
335.42	-43.345
335.78	-42.577
336.15	-41.232
336.51	-43.727
336.87	-46.211
337.23	-41.817
337.60	-40.712
337.96	-44.406
338.32	-42.814
338.68	-42.030
339.04	-38.337
339.41	-38.851
339.77	-35.969
340.13	-38.149
340.49	-39.553
340.86	-35.915
341.22	-35.497
341.58	-34.615
341.94	-33.945
342.30	-37.194
342.67	-33.970
343.03	-33.357
343.39	-31.817
343.75	-31.405
344.11	-31.590
344.48	-31.314
344.84	-30.063
345.20	-30.701
345.56	-33.258
345.92	-30.208
346.28	-29.268
346.65	-29.853
347.01	-29.523
347.37	-27.961
347.73	-26.232
348.09	-27.747
348.45	-24.270
348.82	-26.157
349.18	-26.086
349.54	-23.812
349.90	-24.810
350.26	-26.213
350.62	-24.429
350.98	-22.566
351.35	-20.342
351.71	-23.459
352.07	-22.393
352.43	-21.860
352.79	-19.239
353.15	-22.819
353.51	-20.168
353.87	-21.488
354.24	-20.684
354.60	-20.392
354.96	-19.205
355.32	-21.191
355.68	-19.506
356.04	-18.322
356.40	-18.550
356.76	-19.633
357.12	-17.814
357.48	-17.482
357.85	-17.525
358.21	-16.843
358.57	-16.676
358.93	-18.057
359.29	-17.397
359.65	-17.473
360.01	-14.913
360.37	-16.274
360.73	-16.155
361.09	-14.941
361.45	-15.377
361.81	-14.808
362.17	-15.604
362.53	-14.032
362.89	-14.081
363.25	-14.642
363.62	-14.166
363.98	-14.643
364.34	-15.619
364.70	-13.336
365.06	-13.147
365.42	-12.814
365.78	-13.063
366.14	-12.557
366.50	-12.132
366.86	-11.393
367.22	-12.084
367.58	-11.826
367.94	-11.528
368.30	-10.624
368.66	-10.498
369.02	-10.341
369.38	-10.818
369.74	-10.413
370.10	-10.764
370.46	-10.748
370.82	-10.706
371.18	-10.969
371.54	-9.486
371.90	-10.432
372.26	-10.195
372.62	-8.795
372.98	-9.773
373.33	-8.868
373.69	-8.865
374.05	-9.544
374.41	-8.570
374.77	-8.072
375.13	-8.916
375.49	-7.525
375.85	-7.367
376.21	-7.293
376.57	-8.188
376.93	-7.948
377.29	-7.728
377.65	-7.548
378.01	-7.458
378.37	-6.978
378.73	-6.533
379.08	-6.713
379.44	-6.310
379.80	-6.185
380.16	-6.791
380.52	-6.756
380.88	-5.896
381.24	-6.190
381.60	-6.127
381.96	-5.337
382.32	-5.692
382.67	-5.858
383.03	-5.589
383.39	-5.177
383.75	-4.749
384.11	-4.356
384.47	-4.851
384.83	-4.602
385.19	-3.990
385.54	-4.260
385.90	-3.902
386.26	-3.986
386.62	-4.091
386.98	-3.120
387.34	-3.066
387.70	-3.503
388.05	-3.555
388.41	-3.074
388.77	-2.189
389.13	-2.421
389.49	-2.161
389.85	-1.960
390.20	-2.281
390.56	-2.388
390.92	-2.081
391.28	-1.549
391.64	-1.682
391.99	-1.635
392.35	-0.985
392.71	-0.994
393.07	-1.226
393.43	-0.808
393.78	-0.582
394.14	-0.673
394.50	-0.396
394.86	0.205
395.22	-0.476
395.57	0.097
395.93	0.570
396.29	0.571
396.65	0.729
397.00	0.868
397.36	1.154
397.72	0.648
398.08	1.252
398.43	1.502
398.79	1.819
399.15	2.065
399.51	2.266
399.86	2.404
400.22	2.200
400.58	2.315
400.94	2.318
401.29	2.857
401.65	2.903
402.01	2.974
402.37	3.256
402.72	3.543
403.08	3.456
403.44	3.549
403.79	3.941
404.15	4.019
404.51	4.044
404.86	4.315
405.22	4.477
405.58	4.488
405.94	4.593
406.29	4.920
406.65	5.141
407.01	5.366
407.36	5.471
407.72	5.488
408.08	5.484
408.43	5.657
408.79	6.014
409.15	6.021
409.50	6.336
409.86	6.469
410.22	6.496
410.57	6.773
410.93	6.835
411.29	7.099
411.64	7.013
412.00	7.268
412.35	7.585
412.71	7.361
413.07	8.105
413.42	7.517
413.78	8.107
414.14	8.044
414.49	8.279
414.85	8.302
415.20	8.413
415.56	8.506
415.92	9.040
416.27	9.184
416.63	9.262
416.98	9.294
417.34	9.486
417.70	9.560
418.05	9.592
418.41	9.823
418.76	10.011
419.12	10.265
419.47	10.127
419.83	10.374
420.19	10.639
420.54	10.789
420.90	10.621
421.25	10.780
421.61	11.146
421.96	10.974
422.32	11.245
422.67	11.413
423.03	11.455
423.39	11.699
423.74	11.792
424.10	11.864
424.45	11.879
424.81	11.928
425.16	12.124
425.52	12.445
425.87	12.356
426.23	12.571
426.58	12.816
426.94	12.960
427.29	12.990
427.65	13.065
428.00	13.233
428.36	13.535
428.71	13.366
429.07	13.594
429.42	13.922
429.78	13.914
430.13	14.193
430.49	14.086
430.84	14.233
431.19	14.530
431.55	14.269
431.90	14.509
432.26	14.595
432.61	14.774
432.97	14.959
433.32	15.121
433.68	15.213
434.03	15.360
434.39	15.540
434.74	15.527
435.09	15.517
435.45	15.753
435.80	15.937
436.16	15.889
436.51	15.994
436.86	16.139
437.22	16.406
437.57	16.373
437.93	16.497
438.28	16.563
438.63	16.734
438.99	16.822
439.34	16.957
439.70	17.025
440.05	17.205
440.40	17.182
440.76	17.226
441.11	17.438
441.47	17.466
441.82	17.585
442.17	17.666
442.53	17.764
442.88	17.845
443.23	17.956
443.59	18.101
443.94	18.149
444.29	18.239
444.65	18.417
445.00	18.488
445.35	18.597
445.71	18.777
446.06	18.758
446.41	18.902
446.77	18.963
447.12	18.975
447.47	19.096
447.83	19.331
448.18	19.530
448.53	19.365
448.89	19.483
449.24	19.612
449.59	19.665
449.94	19.774
450.30	19.927
450.65	19.953
451.00	20.024
451.36	20.279
451.71	20.205
452.06	20.278
452.41	20.445
452.77	20.495
453.12	20.656
453.47	20.768
453.82	20.860
454.18	20.926
454.53	20.869
454.88	21.042
455.23	21.174
455.59	21.307
455.94	21.368
456.29	21.532
456.64	21.622
457.00	21.756
457.35	21.836
457.70	21.857
458.05	22.016
458.40	22.062
458.76	22.265
459.11	22.353
459.46	22.276
459.81	22.472
460.16	22.643
460.52	22.737
460.87	22.719
461.22	22.861
461.57	22.910
461.92	22.964
462.28	22.990
462.63	23.251
462.98	23.235
463.33	23.415
463.68	23.527
464.03	23.630
464.38	23.684
464.74	23.802
465.09	23.753
465.44	23.842
465.79	23.904
466.14	23.959
466.49	24.263
466.84	24.228
467.20	24.287
467.55	24.451
467.90	24.490
468.25	24.754
468.60	24.708
468.95	24.587
469.30	24.683
469.65	24.719
470.00	24.856
470.36	24.999
470.71	24.956
471.06	24.990
471.41	25.116
471.76	25.112
472.11	25.204
472.46	25.157
472.81	25.288
473.16	25.372
473.51	25.427
473.86	25.447
474.21	25.505
474.56	25.507
474.91	25.569
475.26	25.537
475.62	25.627
475.97	25.576
476.32	25.647
476.67	25.698
477.02	25.539
477.37	25.716
477.72	25.830
478.07	25.730
478.42	25.707
478.77	25.752
479.12	25.792
479.47	25.740
479.82	25.791
480.17	25.820
480.52	25.831
480.87	25.824
481.22	25.850
481.57	25.788
481.92	25.793
482.27	25.855
482.62	25.933
482.97	25.872
483.32	25.906
483.67	25.923
484.02	25.898
484.36	25.912
484.71	25.920
485.06	26.026
485.41	26.019
485.76	26.041
486.11	26.060
486.46	26.104
486.81	26.203
487.16	26.254
487.51	26.191
487.86	26.316
488.21	26.336
488.56	26.366
488.91	26.466
489.25	26.509
489.60	26.583
489.95	26.613
490.30	26.650
490.65	26.827
491.00	26.826
491.35	26.968
491.70	26.895
492.05	27.039
492.39	27.163
492.74	27.224
493.09	27.249
493.44	27.345
493.79	27.430
494.14	27.475
494.49	27.563
494.83	27.628
495.18	27.642
495.53	27.733
495.88	27.886
496.23	28.041
496.58	27.976
496.92	28.119
497.27	28.220
497.62	28.262
497.97	28.363
498.32	28.410
498.67	28.515
499.01	28.656
499.36	28.657
499.71	28.721
500.06	28.798
500.41	28.859
500.75	28.910
501.10	28.972
501.45	28.968
501.80	28.972
502.14	29.189
502.49	29.181
502.84	29.246
503.19	29.336
503.53	29.406
503.88	29.359
504.23	29.367
504.58	29.461
504.92	29.585
505.27	29.565
505.62	29.603
505.97	29.573
506.31	29.680
506.66	29.701
507.01	29.687
507.36	29.662
507.70	29.741
508.05	29.738
508.40	29.681
508.74	29.722
509.09	29.759
509.44	29.633
509.79	29.620
510.13	29.649
510.48	29.642
510.83	29.557
511.17	29.466
511.52	29.487
511.87	29.512
512.21	29.524
512.56	29.536
512.91	29.522
513.25	29.562
513.60	29.551
513.95	29.655
514.29	29.637
514.64	29.662
514.98	29.783
515.33	29.753
515.68	29.821
516.02	29.837
516.37	29.824
516.72	29.888
517.06	29.962
517.41	30.004
517.75	30.069
518.10	30.046
518.45	30.058
518.79	30.087
519.14	30.178
519.48	30.173
519.83	30.187
520.18	30.200
520.52	30.195
520.87	30.209
521.21	30.256
521.56	30.239
521.90	30.192
522.25	30.326
522.60	30.294
522.94	30.344
523.29	30.224
523.63	30.274
523.98	30.314
524.32	30.252
524.67	30.284
525.01	30.192
525.36	30.184
525.70	30.165
526.05	30.079
526.39	30.067
526.74	30.019
527.08	30.029
527.43	29.958
527.77	29.900
528.12	29.836
528.46	29.743
528.81	29.710
529.15	29.591
529.50	29.520
529.84	29.401
530.19	29.296
530.53	29.196
530.88	29.118
531.22	29.007
531.57	28.792
531.91	28.744
532.26	28.624
532.60	28.490
532.94	28.349
533.29	28.155
533.63	28.066
533.98	27.802
534.32	27.684
534.67	27.552
535.01	27.312
535.35	27.108
535.70	26.943
536.04	26.698
536.39	26.487
536.73	26.262
537.07	26.057
537.42	25.873
537.76	25.686
538.11	25.465
538.45	25.279
538.79	25.072
539.14	24.841
539.48	24.704
539.82	24.473
540.17	24.301
540.51	24.099
540.85	23.974
541.20	23.749
541.54	23.556
541.89	23.505
542.23	23.309
542.57	23.179
542.92	23.063
543.26	22.952
543.60	22.864
543.94	22.816
544.29	22.759
544.63	22.669
544.97	22.620
545.32	22.571
545.66	22.575
546.00	22.587
546.35	22.537
546.69	22.605
547.03	22.533
547.37	22.641
547.72	22.618
548.06	22.664
548.40	22.703
548.75	22.725
549.09	22.807
549.43	22.863
549.77	22.979
550.12	22.951
550.46	23.133
550.80	23.206
551.14	23.302
551.49	23.344
551.83	23.574
552.17	23.687
552.51	23.824
552.85	23.953
553.20	24.120
553.54	24.273
553.88	24.409
554.22	24.547
554.56	24.837
554.91	25.002
555.25	25.253
555.59	25.456
555.93	25.730
556.27	25.892
556.62	26.190
556.96	26.426
557.30	26.660
557.64	26.847
557.98	27.156
558.32	27.375
558.67	27.639
559.01	27.846
559.35	28.096
559.69	28.301
560.03	28.566
560.37	28.824
560.71	29.054
561.05	29.327
561.40	29.471
561.74	29.709
562.08	29.913
562.42	30.110
562.76	30.380
563.10	30.551
563.44	30.704
563.78	30.849
564.12	31.034
564.46	31.220
564.81	31.329
565.15	31.496
565.49	31.615
565.83	31.684
566.17	31.805
566.51	31.892
566.85	31.993
567.19	32.036
567.53	32.136
567.87	32.218
568.21	32.356
568.55	32.357
568.89	32.358
569.23	32.371
569.57	32.399
569.91	32.449
570.25	32.372
570.59	32.422
570.93	32.393
571.27	32.332
571.61	32.373
571.95	32.356
572.29	32.225
572.63	32.170
572.97	32.094
573.31	32.039
573.65	31.952
573.99	31.849
574.33	31.798
574.67	31.676
575.01	31.498
575.35	31.475
575.69	31.329
576.03	31.231
576.37	31.044
576.71	30.991
577.05	30.793
577.39	30.659
577.73	30.517
578.06	30.385
578.40	30.242
578.74	30.011
579.08	29.841
579.42	29.722
579.76	29.450
580.10	29.289
580.44	29.113
580.78	28.921
581.12	28.744
581.45	28.559
581.79	28.370
582.13	28.182
582.47	28.032
582.81	27.807
583.15	27.635
583.49	27.439
583.83	27.272
584.16	27.056
584.50	26.943
584.84	26.898
585.18	26.661
585.52	26.521
585.86	26.352
586.19	26.183
586.53	26.081
586.87	26.000
587.21	25.764
587.55	25.567
587.88	25.457
588.22	25.300
588.56	25.139
588.90	24.918
589.24	24.730
589.57	24.584
589.91	24.347
590.25	24.190
590.59	23.933
590.92	23.697
591.26	23.515
591.60	23.262
591.94	23.047
592.27	22.791
592.61	22.498
592.95	22.304
593.29	22.002
593.62	21.810
593.96	21.439
594.30	21.154
594.64	20.848
594.97	20.521
595.31	20.139
595.65	19.839
595.98	19.455
596.32	19.029
596.66	18.610
597.00	18.207
597.33	17.755
597.67	17.365
598.01	16.859
598.34	16.432
598.68	15.991
599.02	15.584
599.35	15.145
599.69	14.736
600.03	14.323
600.36	14.009
600.70	13.661
601.03	13.275
601.37	13.029
601.71	12.720
602.04	12.433
602.38	12.155
602.72	11.901
603.05	11.645
603.39	11.397
603.72	11.113
604.06	10.888
604.40	10.615
604.73	10.310
605.07	10.082
605.40	9.804
605.74	9.546
606.08	9.306
606.41	8.985
606.75	8.768
607.08	8.475
607.42	8.200
607.75	7.943
608.09	7.649
608.42	7.424
608.76	7.113
609.10	6.877
609.43	6.612
609.77	6.346
610.10	6.071
610.44	5.842
610.77	5.575
611.11	5.347
611.44	5.116
611.78	4.877
612.11	4.618
612.45	4.443
612.78	4.209
613.12	4.008
613.45	3.817
613.79	3.606
614.12	3.423
614.46	3.223
614.79	3.074
615.13	2.923
615.46	2.786
615.79	2.611
616.13	2.551
616.46	2.393
616.80	2.274
617.13	2.172
617.47	2.066
617.80	1.968
618.13	1.918
618.47	1.782
618.80	1.719
619.14	1.660
619.47	1.595
619.81	1.549
620.14	1.463
620.47	1.424
620.81	1.359
621.14	1.307
621.47	1.257
621.81	1.228
622.14	1.192
622.48	1.148
622.81	1.116
623.14	1.098
623.48	1.067
623.81	1.033
624.14	0.992
624.48	0.958
624.81	0.948
625.14	0.928
625.48	0.895
