SpectraSuite Data File
++++++++++++++++++++++++++++++++++++
Date: Mon Apr 20 20:47:02 BST 2015
User: mpfc3
Dark Spectrum Present: Yes
Reference Spectrum Present: Yes
Number of Sampled Component Spectra: 1
Spectrometers: USB2E3636
Integration Time (usec): 30000 (USB2E3636)
Spectra Averaged: 100 (USB2E3636)
Boxcar Smoothing: 0 (USB2E3636)
Correct for Electrical Dark: No (USB2E3636)
Strobe/Lamp Enabled: No (USB2E3636)
Correct for Detector Non-linearity: No (USB2E3636)
Correct for Stray Light: No (USB2E3636)
Number of Pixels in Processed Spectrum: 2048
>>>>>Begin Processed Spectral Data<<<<<
180.28	0.000
180.65	256.044
181.02	229.808
181.39	234.205
181.77	261.659
182.14	252.505
182.51	265.772
182.88	274.779
183.25	265.639
183.63	227.894
184.00	250.317
184.37	246.791
184.74	253.507
185.11	270.843
185.49	276.977
185.86	225.698
186.23	287.886
186.60	270.067
186.97	266.514
187.35	259.130
187.72	272.311
188.09	234.455
188.46	241.632
188.83	232.806
189.20	-2716.279
189.58	-65.126
189.95	-67.428
190.32	-68.883
190.69	-64.378
191.06	-70.391
191.43	-71.858
191.81	-63.523
192.18	-69.082
192.55	-73.116
192.92	-61.651
193.29	-66.622
193.66	-65.999
194.03	-67.339
194.41	-69.664
194.78	-68.050
195.15	-68.631
195.52	-64.625
195.89	-68.763
196.26	-64.850
196.63	-76.636
197.01	-72.796
197.38	-71.309
197.75	-63.309
198.12	-62.492
198.49	-67.643
198.86	-61.776
199.23	-70.954
199.60	-63.937
199.98	-71.537
200.35	-65.209
200.72	-69.278
201.09	-73.798
201.46	-68.973
201.83	-73.968
202.20	-64.623
202.57	-73.523
202.94	-72.072
203.31	-65.475
203.69	-67.503
204.06	-66.849
204.43	-66.434
204.80	-69.862
205.17	-75.804
205.54	-74.414
205.91	-70.347
206.28	-71.715
206.65	-78.686
207.02	-71.127
207.39	-69.922
207.76	-71.671
208.14	-71.146
208.51	-66.802
208.88	-69.759
209.25	-71.542
209.62	-77.937
209.99	-69.971
210.36	-73.338
210.73	-72.158
211.10	-77.283
211.47	-71.449
211.84	-69.663
212.21	-73.822
212.58	-76.929
212.95	-75.852
213.32	-75.524
213.69	-68.600
214.06	-73.754
214.43	-75.875
214.80	-78.988
215.17	-76.123
215.55	-82.826
215.92	-80.031
216.29	-73.071
216.66	-77.072
217.03	-76.929
217.40	-74.720
217.77	-74.741
218.14	-79.738
218.51	-77.769
218.88	-82.660
219.25	-71.232
219.62	-85.179
219.99	-84.194
220.36	-80.740
220.73	-80.676
221.10	-75.248
221.47	-75.827
221.84	-90.246
222.21	-93.591
222.58	-84.385
222.95	-83.948
223.32	-81.092
223.69	-89.120
224.06	-75.355
224.43	-74.265
224.80	-80.791
225.17	-92.059
225.54	-83.212
225.91	-80.031
226.27	-64.846
226.64	-84.095
227.01	-81.990
227.38	-92.381
227.75	-86.915
228.12	-83.646
228.49	-86.797
228.86	-92.518
229.23	-94.630
229.60	-93.689
229.97	-94.585
230.34	-86.842
230.71	-91.436
231.08	-88.759
231.45	-92.087
231.82	-83.004
232.19	-95.009
232.56	-95.656
232.93	-96.255
233.30	-93.316
233.66	-96.382
234.03	-86.055
234.40	-83.891
234.77	-92.096
235.14	-92.532
235.51	-102.695
235.88	-100.000
236.25	-99.071
236.62	-90.558
236.99	-91.697
237.36	-92.916
237.73	-102.006
238.09	-98.584
238.46	-93.542
238.83	-96.098
239.20	-99.446
239.57	-88.251
239.94	-96.228
240.31	-87.100
240.68	-90.210
241.05	-103.924
241.41	-97.586
241.78	-104.856
242.15	-94.386
242.52	-98.196
242.89	-114.301
243.26	-99.808
243.63	-91.607
244.00	-113.383
244.36	-86.242
244.73	-100.871
245.10	-96.777
245.47	-91.712
245.84	-96.595
246.21	-100.996
246.58	-108.078
246.94	-97.416
247.31	-108.157
247.68	-103.392
248.05	-98.894
248.42	-105.797
248.79	-107.724
249.15	-105.322
249.52	-106.569
249.89	-108.299
250.26	-103.800
250.63	-111.653
251.00	-112.607
251.36	-105.517
251.73	-103.134
252.10	-116.613
252.47	-113.383
252.84	-109.337
253.20	-104.708
253.57	-101.756
253.94	-117.054
254.31	-102.610
254.68	-109.293
255.05	-113.161
255.41	-105.104
255.78	-107.765
256.15	-105.723
256.52	-99.304
256.88	-109.043
257.25	-121.107
257.62	-111.243
257.99	-100.000
258.36	-113.099
258.72	-120.245
259.09	-120.442
259.46	-134.337
259.83	-116.336
260.19	-105.793
260.56	-122.573
260.93	-108.609
261.30	-116.685
261.67	-134.831
262.03	-116.379
262.40	-110.453
262.77	-114.350
263.14	-123.275
263.50	-116.960
263.87	-127.078
264.24	-119.823
264.61	-123.529
264.97	-109.877
265.34	-118.202
265.71	-117.459
266.07	-101.306
266.44	-117.237
266.81	-123.237
267.18	-113.048
267.54	-117.813
267.91	-112.986
268.28	-125.598
268.64	-119.269
269.01	-108.004
269.38	-128.033
269.75	-128.938
270.11	-145.269
270.48	-127.924
270.85	-97.904
271.21	-126.519
271.58	-122.500
271.95	-120.247
272.32	-107.589
272.68	-115.017
273.05	-132.539
273.42	-116.195
273.78	-116.044
274.15	-127.639
274.52	-114.286
274.88	-116.061
275.25	-113.386
275.62	-112.169
275.98	-112.141
276.35	-112.843
276.72	-111.302
277.08	-117.149
277.45	-116.222
277.82	-123.399
278.18	-114.553
278.55	-122.795
278.92	-120.540
279.28	-105.944
279.65	-117.136
280.01	-119.557
280.38	-114.189
280.75	-124.385
281.11	-128.302
281.48	-113.689
281.85	-129.567
282.21	-129.625
282.58	-122.633
282.95	-119.859
283.31	-119.583
283.68	-118.506
284.04	-96.488
284.41	-118.396
284.78	-111.845
285.14	-119.633
285.51	-112.390
285.87	-117.308
286.24	-120.046
286.61	-139.487
286.97	-113.774
287.34	-128.690
287.70	-123.384
288.07	-109.778
288.44	-115.324
288.80	-117.783
289.17	-112.598
289.53	-111.765
289.90	-118.864
290.26	-118.443
290.63	-102.775
291.00	-131.152
291.36	-104.837
291.73	-103.838
292.09	-109.702
292.46	-108.036
292.82	-115.402
293.19	-110.907
293.56	-119.389
293.92	-110.841
294.29	-125.382
294.65	-115.046
295.02	-116.013
295.38	-125.656
295.75	-114.332
296.11	-110.341
296.48	-109.345
296.84	-113.777
297.21	-131.103
297.57	-120.882
297.94	-124.735
298.30	-110.626
298.67	-109.206
299.04	-126.824
299.40	-108.351
299.77	-109.385
300.13	-121.101
300.50	-98.855
300.86	-113.258
301.23	-102.578
301.59	-101.009
301.96	-133.948
302.32	-120.914
302.69	-117.108
303.05	-105.612
303.42	-103.590
303.78	-108.254
304.14	-105.198
304.51	-102.188
304.87	-121.149
305.24	-96.753
305.60	-101.399
305.97	-98.218
306.33	-103.277
306.70	-95.161
307.06	-93.384
307.43	-96.803
307.79	-106.089
308.16	-93.548
308.52	-102.678
308.88	-123.661
309.25	-101.756
309.61	-94.340
309.98	-111.864
310.34	-106.681
310.71	-95.870
311.07	-97.817
311.44	-106.914
311.80	-97.566
312.16	-95.450
312.53	-98.732
312.89	-98.932
313.26	-93.074
313.62	-97.348
313.98	-89.891
314.35	-92.958
314.71	-98.359
315.08	-98.562
315.44	-102.488
315.80	-94.554
316.17	-90.282
316.53	-83.630
316.90	-81.401
317.26	-98.767
317.62	-80.118
317.99	-85.059
318.35	-78.367
318.72	-80.163
319.08	-80.198
319.44	-92.450
319.81	-76.936
320.17	-81.743
320.53	-86.997
320.90	-76.529
321.26	-79.605
321.62	-74.688
321.99	-80.748
322.35	-71.164
322.72	-73.720
323.08	-75.680
323.44	-76.589
323.81	-78.512
324.17	-77.176
324.53	-72.291
324.90	-78.866
325.26	-71.651
325.62	-74.074
325.99	-82.201
326.35	-67.052
326.71	-70.137
327.08	-59.584
327.44	-67.285
327.80	-63.849
328.16	-64.409
328.53	-67.226
328.89	-70.274
329.25	-71.576
329.62	-50.183
329.98	-52.463
330.34	-58.037
330.71	-57.441
331.07	-56.293
331.43	-50.536
331.79	-47.758
332.16	-51.241
332.52	-51.187
332.88	-53.055
333.24	-54.102
333.61	-51.613
333.97	-52.014
334.33	-46.567
334.70	-47.977
335.06	-47.811
335.42	-45.363
335.78	-46.965
336.15	-42.626
336.51	-43.315
336.87	-47.007
337.23	-42.519
337.60	-42.925
337.96	-42.888
338.32	-41.407
338.68	-41.737
339.04	-40.653
339.41	-39.735
339.77	-35.147
340.13	-37.251
340.49	-39.553
340.86	-36.446
341.22	-36.135
341.58	-37.043
341.94	-33.346
342.30	-38.010
342.67	-36.170
343.03	-35.188
343.39	-33.713
343.75	-33.549
344.11	-34.069
344.48	-32.170
344.84	-30.591
345.20	-30.414
345.56	-32.387
345.92	-29.804
346.28	-30.335
346.65	-30.189
347.01	-30.333
347.37	-28.254
347.73	-26.204
348.09	-28.608
348.45	-25.455
348.82	-24.799
349.18	-25.893
349.54	-23.812
349.90	-25.413
350.26	-25.417
350.62	-23.249
350.98	-22.214
351.35	-20.880
351.71	-24.254
352.07	-22.808
352.43	-22.536
352.79	-20.023
353.15	-21.892
353.51	-20.464
353.87	-22.245
354.24	-20.217
354.60	-20.766
354.96	-19.875
355.32	-19.799
355.68	-20.932
356.04	-19.384
356.40	-18.673
356.76	-19.633
357.12	-17.914
357.48	-17.816
357.85	-18.974
358.21	-17.112
358.57	-16.340
358.93	-18.837
359.29	-17.157
359.65	-16.372
360.01	-16.193
360.37	-15.724
360.73	-16.858
361.09	-14.717
361.45	-15.546
361.81	-15.381
362.17	-14.555
362.53	-13.968
362.89	-14.387
363.25	-13.355
363.62	-13.451
363.98	-14.471
364.34	-15.341
364.70	-12.678
365.06	-13.162
365.42	-13.006
365.78	-12.353
366.14	-12.614
366.50	-12.090
366.86	-12.716
367.22	-11.674
367.58	-11.990
367.94	-11.261
368.30	-10.963
368.66	-11.555
369.02	-10.648
369.38	-11.481
369.74	-10.803
370.10	-10.876
370.46	-10.247
370.82	-10.561
371.18	-11.282
371.54	-9.604
371.90	-10.326
372.26	-10.218
372.62	-10.276
372.98	-8.933
373.33	-9.181
373.69	-9.185
374.05	-9.718
374.41	-9.117
374.77	-8.439
375.13	-8.800
375.49	-7.689
375.85	-7.912
376.21	-8.215
376.57	-7.804
376.93	-7.928
377.29	-7.892
377.65	-7.166
378.01	-7.391
378.37	-7.174
378.73	-6.886
379.08	-6.560
379.44	-6.945
379.80	-6.769
380.16	-6.559
380.52	-6.668
380.88	-5.947
381.24	-6.181
381.60	-6.211
381.96	-5.855
382.32	-5.535
382.67	-5.299
383.03	-5.297
383.39	-5.354
383.75	-5.314
384.11	-4.975
384.47	-5.083
384.83	-4.313
385.19	-4.813
385.54	-4.275
385.90	-3.909
386.26	-4.082
386.62	-4.054
386.98	-3.536
387.34	-3.572
387.70	-3.595
388.05	-3.676
388.41	-3.053
388.77	-2.488
389.13	-2.260
389.49	-2.425
389.85	-2.351
390.20	-2.288
390.56	-2.149
390.92	-2.138
391.28	-1.556
391.64	-1.876
391.99	-1.498
392.35	-0.874
392.71	-0.921
393.07	-0.977
393.43	-0.754
393.78	-0.366
394.14	-0.337
394.50	-0.513
394.86	-0.263
395.22	-0.017
395.57	0.132
395.93	0.373
396.29	0.692
396.65	0.756
397.00	0.819
397.36	1.149
397.72	0.961
398.08	1.353
398.43	1.219
398.79	1.731
399.15	1.993
399.51	2.096
399.86	2.269
400.22	2.057
400.58	2.151
400.94	2.660
401.29	2.891
401.65	2.712
402.01	2.960
402.37	3.389
402.72	3.414
403.08	3.328
403.44	3.568
403.79	3.954
404.15	3.983
404.51	3.798
404.86	4.315
405.22	4.533
405.58	4.479
405.94	4.439
406.29	4.607
406.65	5.040
407.01	5.009
407.36	5.388
407.72	5.660
408.08	5.602
408.43	5.301
408.79	5.894
409.15	5.855
409.50	6.245
409.86	6.234
410.22	6.356
410.57	6.597
410.93	6.797
411.29	7.103
411.64	6.803
412.00	7.425
412.35	7.517
412.71	7.263
413.07	7.894
413.42	7.495
413.78	7.809
414.14	7.959
414.49	7.994
414.85	8.295
415.20	8.410
415.56	8.572
415.92	8.849
416.27	9.030
416.63	9.144
416.98	9.261
417.34	9.281
417.70	9.560
418.05	9.614
418.41	9.734
418.76	9.895
419.12	10.206
419.47	10.155
419.83	10.194
420.19	10.398
420.54	10.599
420.90	10.544
421.25	10.847
421.61	10.881
421.96	10.948
422.32	11.304
422.67	11.221
423.03	11.477
423.39	11.624
423.74	11.721
424.10	11.801
424.45	11.961
424.81	11.983
425.16	12.159
425.52	12.490
425.87	12.332
426.23	12.626
426.58	12.822
426.94	12.965
427.29	13.108
427.65	13.045
428.00	13.423
428.36	13.189
428.71	13.239
429.07	13.626
429.42	13.690
429.78	13.871
430.13	14.096
430.49	14.149
430.84	14.045
431.19	14.316
431.55	14.378
431.90	14.565
432.26	14.644
432.61	14.913
432.97	14.966
433.32	14.983
433.68	15.240
434.03	15.163
434.39	15.460
434.74	15.562
435.09	15.534
435.45	15.792
435.80	16.012
436.16	15.708
436.51	16.110
436.86	15.991
437.22	16.169
437.57	16.381
437.93	16.514
438.28	16.757
438.63	16.734
438.99	16.765
439.34	16.808
439.70	16.881
440.05	16.967
440.40	17.104
440.76	17.262
441.11	17.427
441.47	17.446
441.82	17.674
442.17	17.820
442.53	17.742
442.88	17.847
443.23	17.951
443.59	18.179
443.94	18.258
444.29	18.285
444.65	18.318
445.00	18.559
445.35	18.552
445.71	18.679
446.06	18.786
446.41	18.778
446.77	18.792
447.12	18.964
447.47	19.009
447.83	19.147
448.18	19.506
448.53	19.432
448.89	19.369
449.24	19.451
449.59	19.724
449.94	19.755
450.30	19.885
450.65	20.036
451.00	20.039
451.36	20.276
451.71	20.262
452.06	20.338
452.41	20.460
452.77	20.461
453.12	20.579
453.47	20.790
453.82	20.857
454.18	20.912
454.53	21.052
454.88	20.977
455.23	21.121
455.59	21.244
455.94	21.379
456.29	21.517
456.64	21.582
457.00	21.679
457.35	21.834
457.70	21.752
458.05	21.902
458.40	22.022
458.76	22.236
459.11	22.336
459.46	22.247
459.81	22.410
460.16	22.543
460.52	22.573
460.87	22.763
461.22	22.757
461.57	22.893
461.92	23.011
462.28	23.102
462.63	23.225
462.98	23.202
463.33	23.416
463.68	23.446
464.03	23.613
464.38	23.637
464.74	23.699
465.09	23.833
465.44	23.757
465.79	23.860
466.14	23.946
466.49	24.030
466.84	24.312
467.20	24.357
467.55	24.425
467.90	24.347
468.25	24.632
468.60	24.674
468.95	24.655
469.30	24.687
469.65	24.715
470.00	24.861
470.36	24.949
470.71	24.956
471.06	24.991
471.41	25.069
471.76	25.183
472.11	25.217
472.46	25.276
472.81	25.290
473.16	25.390
473.51	25.432
473.86	25.426
474.21	25.475
474.56	25.511
474.91	25.614
475.26	25.602
475.62	25.615
475.97	25.593
476.32	25.594
476.67	25.638
477.02	25.557
477.37	25.814
477.72	25.736
478.07	25.721
478.42	25.680
478.77	25.731
479.12	25.807
479.47	25.783
479.82	25.721
480.17	25.782
480.52	25.805
480.87	25.793
481.22	25.824
481.57	25.825
481.92	25.850
482.27	25.882
482.62	25.956
482.97	25.891
483.32	25.944
483.67	25.841
484.02	25.865
484.36	25.870
484.71	26.012
485.06	25.974
485.41	25.972
485.76	26.097
486.11	26.145
486.46	26.026
486.81	26.159
487.16	26.188
487.51	26.197
487.86	26.241
488.21	26.350
488.56	26.397
488.91	26.470
489.25	26.522
489.60	26.590
489.95	26.581
490.30	26.703
490.65	26.786
491.00	26.863
491.35	26.989
491.70	27.001
492.05	26.973
492.39	27.116
492.74	27.186
493.09	27.228
493.44	27.316
493.79	27.461
494.14	27.458
494.49	27.524
494.83	27.568
495.18	27.716
495.53	27.794
495.88	27.873
496.23	27.920
496.58	27.940
496.92	28.172
497.27	28.215
497.62	28.287
497.97	28.346
498.32	28.476
498.67	28.586
499.01	28.550
499.36	28.661
499.71	28.714
500.06	28.783
500.41	28.836
500.75	28.866
501.10	28.988
501.45	29.009
501.80	29.032
502.14	29.178
502.49	29.209
502.84	29.268
503.19	29.276
503.53	29.379
503.88	29.411
504.23	29.359
504.58	29.428
504.92	29.544
505.27	29.609
505.62	29.589
505.97	29.647
506.31	29.672
506.66	29.701
507.01	29.669
507.36	29.738
507.70	29.734
508.05	29.730
508.40	29.746
508.74	29.727
509.09	29.735
509.44	29.644
509.79	29.581
510.13	29.580
510.48	29.636
510.83	29.533
511.17	29.556
511.52	29.553
511.87	29.434
512.21	29.513
512.56	29.550
512.91	29.476
513.25	29.534
513.60	29.587
513.95	29.615
514.29	29.650
514.64	29.680
514.98	29.767
515.33	29.724
515.68	29.802
516.02	29.811
516.37	29.868
516.72	29.892
517.06	29.988
517.41	30.007
517.75	29.994
518.10	30.084
518.45	30.013
518.79	30.122
519.14	30.165
519.48	30.217
519.83	30.133
520.18	30.149
520.52	30.239
520.87	30.205
521.21	30.265
521.56	30.272
521.90	30.256
522.25	30.282
522.60	30.248
522.94	30.327
523.29	30.299
523.63	30.234
523.98	30.316
524.32	30.219
524.67	30.267
525.01	30.159
525.36	30.194
525.70	30.205
526.05	30.122
526.39	30.014
526.74	30.036
527.08	30.025
527.43	29.953
527.77	29.828
528.12	29.772
528.46	29.722
528.81	29.714
529.15	29.583
529.50	29.552
529.84	29.425
530.19	29.327
530.53	29.192
530.88	29.126
531.22	28.969
531.57	28.834
531.91	28.773
532.26	28.670
532.60	28.509
532.94	28.310
533.29	28.125
533.63	28.038
533.98	27.793
534.32	27.734
534.67	27.522
535.01	27.309
535.35	27.124
535.70	26.933
536.04	26.726
536.39	26.501
536.73	26.276
537.07	26.136
537.42	25.949
537.76	25.647
538.11	25.502
538.45	25.284
538.79	25.034
539.14	24.837
539.48	24.638
539.82	24.452
540.17	24.250
540.51	24.045
540.85	23.933
541.20	23.722
541.54	23.545
541.89	23.434
542.23	23.261
542.57	23.160
542.92	23.095
543.26	22.975
543.60	22.889
543.94	22.855
544.29	22.747
544.63	22.701
544.97	22.578
545.32	22.568
545.66	22.552
546.00	22.578
546.35	22.513
546.69	22.576
547.03	22.541
547.37	22.633
547.72	22.666
548.06	22.689
548.40	22.708
548.75	22.712
549.09	22.752
549.43	22.865
549.77	22.915
550.12	22.983
550.46	23.123
550.80	23.190
551.14	23.265
551.49	23.350
551.83	23.533
552.17	23.637
552.51	23.789
552.85	23.937
553.20	24.063
553.54	24.314
553.88	24.463
554.22	24.614
554.56	24.830
554.91	25.072
555.25	25.279
555.59	25.485
555.93	25.668
556.27	25.863
556.62	26.192
556.96	26.466
557.30	26.619
557.64	26.863
557.98	27.188
558.32	27.343
558.67	27.661
559.01	27.888
559.35	28.071
559.69	28.342
560.03	28.570
560.37	28.860
560.71	29.041
561.05	29.292
561.40	29.458
561.74	29.714
562.08	29.917
562.42	30.121
562.76	30.355
563.10	30.515
563.44	30.650
563.78	30.867
564.12	31.030
564.46	31.246
564.81	31.361
565.15	31.539
565.49	31.603
565.83	31.697
566.17	31.864
566.51	31.893
566.85	32.017
567.19	32.044
567.53	32.195
567.87	32.247
568.21	32.315
568.55	32.341
568.89	32.304
569.23	32.394
569.57	32.416
569.91	32.368
570.25	32.421
570.59	32.389
570.93	32.423
571.27	32.405
571.61	32.312
571.95	32.320
572.29	32.129
572.63	32.143
572.97	32.075
573.31	32.061
573.65	31.939
573.99	31.867
574.33	31.798
574.67	31.687
575.01	31.544
575.35	31.430
575.69	31.348
576.03	31.237
576.37	31.104
576.71	30.995
577.05	30.876
577.39	30.661
577.73	30.569
578.06	30.411
578.40	30.225
578.74	30.099
579.08	29.868
579.42	29.670
579.76	29.513
580.10	29.323
580.44	29.164
580.78	28.953
581.12	28.691
581.45	28.592
581.79	28.379
582.13	28.145
582.47	28.023
582.81	27.758
583.15	27.633
583.49	27.450
583.83	27.274
584.16	27.130
584.50	26.920
584.84	26.816
585.18	26.694
585.52	26.502
585.86	26.394
586.19	26.224
586.53	26.126
586.87	26.002
587.21	25.798
587.55	25.598
587.88	25.485
588.22	25.264
588.56	25.100
588.90	24.887
589.24	24.719
589.57	24.529
589.91	24.377
590.25	24.182
590.59	23.892
590.92	23.751
591.26	23.515
591.60	23.311
591.94	23.085
592.27	22.831
592.61	22.532
592.95	22.305
593.29	21.997
593.62	21.740
593.96	21.455
594.30	21.184
594.64	20.838
594.97	20.528
595.31	20.218
595.65	19.829
595.98	19.440
596.32	19.016
596.66	18.616
597.00	18.218
597.33	17.798
597.67	17.324
598.01	16.920
598.34	16.398
598.68	16.035
599.02	15.575
599.35	15.175
599.69	14.732
600.03	14.336
600.36	13.989
600.70	13.638
601.03	13.324
601.37	12.988
601.71	12.758
602.04	12.426
602.38	12.171
602.72	11.882
603.05	11.641
603.39	11.393
603.72	11.106
604.06	10.866
604.40	10.604
604.73	10.364
605.07	10.090
605.40	9.823
605.74	9.569
606.08	9.293
606.41	8.994
606.75	8.737
607.08	8.478
607.42	8.136
607.75	7.903
608.09	7.683
608.42	7.396
608.76	7.132
609.10	6.873
609.43	6.590
609.77	6.345
610.10	6.069
610.44	5.845
610.77	5.552
611.11	5.310
611.44	5.096
611.78	4.833
612.11	4.632
612.45	4.422
612.78	4.207
613.12	4.006
613.45	3.811
613.79	3.589
614.12	3.409
614.46	3.227
614.79	3.073
615.13	2.909
615.46	2.800
615.79	2.625
616.13	2.511
616.46	2.385
616.80	2.273
617.13	2.167
617.47	2.075
617.80	1.959
618.13	1.896
618.47	1.790
618.80	1.753
619.14	1.645
619.47	1.617
619.81	1.532
620.14	1.472
620.47	1.409
620.81	1.361
621.14	1.290
621.47	1.272
621.81	1.217
622.14	1.170
622.48	1.114
622.81	1.088
623.14	1.064
623.48	1.050
623.81	1.020
624.14	0.996
624.48	0.950
624.81	0.954
625.14	0.925
625.48	0.911
