SpectraSuite Data File
++++++++++++++++++++++++++++++++++++
Date: Mon Apr 20 20:42:56 BST 2015
User: mpfc3
Dark Spectrum Present: Yes
Reference Spectrum Present: Yes
Number of Sampled Component Spectra: 1
Spectrometers: USB2E3636
Integration Time (usec): 30000 (USB2E3636)
Spectra Averaged: 100 (USB2E3636)
Boxcar Smoothing: 0 (USB2E3636)
Correct for Electrical Dark: No (USB2E3636)
Strobe/Lamp Enabled: No (USB2E3636)
Correct for Detector Non-linearity: No (USB2E3636)
Correct for Stray Light: No (USB2E3636)
Number of Pixels in Processed Spectrum: 2048
>>>>>Begin Processed Spectral Data<<<<<
180.28	0.000
180.65	244.835
181.02	209.038
181.39	224.346
181.77	238.565
182.14	239.216
182.51	232.438
182.88	233.628
183.25	229.956
183.63	205.882
184.00	228.541
184.37	216.977
184.74	225.651
185.11	243.052
185.49	251.860
185.86	203.911
186.23	257.957
186.60	240.133
186.97	251.606
187.35	238.696
187.72	247.826
188.09	209.901
188.46	226.987
188.83	219.960
189.20	-2572.093
189.58	-60.027
189.95	-60.248
190.32	-62.646
190.69	-51.231
191.06	-63.400
191.43	-62.989
191.81	-58.874
192.18	-57.646
192.55	-63.204
192.92	-53.395
193.29	-56.029
193.66	-58.112
194.03	-60.417
194.41	-54.899
194.78	-60.373
195.15	-60.501
195.52	-59.091
195.89	-59.672
196.26	-58.787
196.63	-66.221
197.01	-64.325
197.38	-63.997
197.75	-55.069
198.12	-55.335
198.49	-61.035
198.86	-53.153
199.23	-62.863
199.60	-59.577
199.98	-60.234
200.35	-56.130
200.72	-60.027
201.09	-63.101
201.46	-59.259
201.83	-64.101
202.20	-58.491
202.57	-64.982
202.94	-60.984
203.31	-56.440
203.69	-57.191
204.06	-57.367
204.43	-60.350
204.80	-63.448
205.17	-65.789
205.54	-62.345
205.91	-63.125
206.28	-61.065
206.65	-70.000
207.02	-67.636
207.39	-64.827
207.76	-62.960
208.14	-60.962
208.51	-57.705
208.88	-60.836
209.25	-64.301
209.62	-70.989
209.99	-66.446
210.36	-56.936
210.73	-65.755
211.10	-72.218
211.47	-62.926
211.84	-58.287
212.21	-68.528
212.58	-68.027
212.95	-68.206
213.32	-69.910
213.69	-63.649
214.06	-63.856
214.43	-67.420
214.80	-70.895
215.17	-74.551
215.55	-70.960
215.92	-66.384
216.29	-67.322
216.66	-64.526
217.03	-73.500
217.40	-64.248
217.77	-69.259
218.14	-73.806
218.51	-67.629
218.88	-75.059
219.25	-60.290
219.62	-74.741
219.99	-73.709
220.36	-63.867
220.73	-71.578
221.10	-67.609
221.47	-68.819
221.84	-80.153
222.21	-85.426
222.58	-75.485
222.95	-75.921
223.32	-74.817
223.69	-72.160
224.06	-68.325
224.43	-65.528
224.80	-73.597
225.17	-83.246
225.54	-73.850
225.91	-71.417
226.27	-59.462
226.64	-75.042
227.01	-71.875
227.38	-82.511
227.75	-78.076
228.12	-72.487
228.49	-78.194
228.86	-78.697
229.23	-84.630
229.60	-77.511
229.97	-79.738
230.34	-78.438
230.71	-84.211
231.08	-89.119
231.45	-79.217
231.82	-78.026
232.19	-88.113
232.56	-81.581
232.93	-85.112
233.30	-84.046
233.66	-80.427
234.03	-80.759
234.40	-73.327
234.77	-79.596
235.14	-83.607
235.51	-86.910
235.88	-89.539
236.25	-86.630
236.62	-79.137
236.99	-78.875
237.36	-81.471
237.73	-91.022
238.09	-88.291
238.46	-82.196
238.83	-81.851
239.20	-86.242
239.57	-79.872
239.94	-82.521
240.31	-75.297
240.68	-81.976
241.05	-95.875
241.41	-84.401
241.78	-96.729
242.15	-82.778
242.52	-91.548
242.89	-100.421
243.26	-85.509
243.63	-78.125
244.00	-101.071
244.36	-80.425
244.73	-82.769
245.10	-92.749
245.47	-81.712
245.84	-83.366
246.21	-93.725
246.58	-92.945
246.94	-85.586
247.31	-94.058
247.68	-96.506
248.05	-93.668
248.42	-97.826
248.79	-99.374
249.15	-90.686
249.52	-98.332
249.89	-100.104
250.26	-91.200
250.63	-91.949
251.00	-102.457
251.36	-99.599
251.73	-96.967
252.10	-97.735
252.47	-100.316
252.84	-95.984
253.20	-93.245
253.57	-95.868
253.94	-109.856
254.31	-90.361
254.68	-100.634
255.05	-100.863
255.41	-94.167
255.78	-100.630
256.15	-92.404
256.52	-90.954
256.88	-96.277
257.25	-109.227
257.62	-91.351
257.99	-90.176
258.36	-99.042
258.72	-111.902
259.09	-105.083
259.46	-118.193
259.83	-104.084
260.19	-86.992
260.56	-110.058
260.93	-99.227
261.30	-100.436
261.67	-127.466
262.03	-104.203
262.40	-97.414
262.77	-105.157
263.14	-117.310
263.50	-110.132
263.87	-116.627
264.24	-101.661
264.61	-101.384
264.97	-104.153
265.34	-105.993
265.71	-108.287
266.07	-96.627
266.44	-110.502
266.81	-114.682
267.18	-98.538
267.54	-100.113
267.91	-98.668
268.28	-105.502
268.64	-102.215
269.01	-99.890
269.38	-111.190
269.75	-107.001
270.11	-128.772
270.48	-120.286
270.85	-87.945
271.21	-106.776
271.58	-109.886
271.95	-107.199
272.32	-105.246
272.68	-106.229
273.05	-116.687
273.42	-102.718
273.78	-97.143
274.15	-113.286
274.52	-101.897
274.88	-105.862
275.25	-102.137
275.62	-92.910
275.98	-98.013
276.35	-99.561
276.72	-96.017
277.08	-108.806
277.45	-101.222
277.82	-104.191
278.18	-99.338
278.55	-109.851
278.92	-107.160
279.28	-88.947
279.65	-105.411
280.01	-114.145
280.38	-104.392
280.75	-111.841
281.11	-114.269
281.48	-104.408
281.85	-113.221
282.21	-116.687
282.58	-100.462
282.95	-107.168
283.31	-112.167
283.68	-103.218
284.04	-84.711
284.41	-104.599
284.78	-105.923
285.14	-100.000
285.51	-101.864
285.87	-100.905
286.24	-113.326
286.61	-112.714
286.97	-97.939
287.34	-111.310
287.70	-114.806
288.07	-104.778
288.44	-104.586
288.80	-103.580
289.17	-102.118
289.53	-93.791
289.90	-97.841
290.26	-109.461
290.63	-91.367
291.00	-116.970
291.36	-87.802
291.73	-89.523
292.09	-98.567
292.46	-101.563
292.82	-97.879
293.19	-106.315
293.56	-108.813
293.92	-99.336
294.29	-109.871
294.65	-103.472
295.02	-104.591
295.38	-116.229
295.75	-94.225
296.11	-95.270
296.48	-94.629
296.84	-98.967
297.21	-111.737
297.57	-111.485
297.94	-109.069
298.30	-102.349
298.67	-94.392
299.04	-105.412
299.40	-96.467
299.77	-101.402
300.13	-103.555
300.50	-87.513
300.86	-102.697
301.23	-95.489
301.59	-90.212
301.96	-117.589
302.32	-105.600
302.69	-101.104
303.05	-93.878
303.42	-92.397
303.78	-89.947
304.14	-96.362
304.51	-93.438
304.87	-110.345
305.24	-80.611
305.60	-88.811
305.97	-84.851
306.33	-87.488
306.70	-84.250
307.06	-80.529
307.43	-82.717
307.79	-99.484
308.16	-77.713
308.52	-87.127
308.88	-96.987
309.25	-84.195
309.61	-81.331
309.98	-91.843
310.34	-97.306
310.71	-85.939
311.07	-91.071
311.44	-92.982
311.80	-87.342
312.16	-85.118
312.53	-90.341
312.89	-84.272
313.26	-89.753
313.62	-87.819
313.98	-78.780
314.35	-87.136
314.71	-86.680
315.08	-89.358
315.44	-87.081
315.80	-81.972
316.17	-82.380
316.53	-73.791
316.90	-71.194
317.26	-83.491
317.62	-73.968
317.99	-70.968
318.35	-78.122
318.72	-67.184
319.08	-71.205
319.44	-86.304
319.81	-65.689
320.17	-74.507
320.53	-71.896
320.90	-65.214
321.26	-69.091
321.62	-64.297
321.99	-69.135
322.35	-63.973
322.72	-65.060
323.08	-66.239
323.44	-62.752
323.81	-71.525
324.17	-66.565
324.53	-65.673
324.90	-64.948
325.26	-61.091
325.62	-62.963
325.99	-66.198
326.35	-59.700
326.71	-63.562
327.08	-52.522
327.44	-59.007
327.80	-53.576
328.16	-56.358
328.53	-59.539
328.89	-63.492
329.25	-62.285
329.62	-46.367
329.98	-44.811
330.34	-48.900
330.71	-50.145
331.07	-50.577
331.43	-46.302
331.79	-42.317
332.16	-46.794
332.52	-45.541
332.88	-46.785
333.24	-45.737
333.61	-46.410
333.97	-43.511
334.33	-43.134
334.70	-44.515
335.06	-41.126
335.42	-39.789
335.78	-39.309
336.15	-39.703
336.51	-41.209
336.87	-39.616
337.23	-39.008
337.60	-36.415
337.96	-37.858
338.32	-35.437
338.68	-35.612
339.04	-31.803
339.41	-35.275
339.77	-31.037
340.13	-33.463
340.49	-34.614
340.86	-30.410
341.22	-31.707
341.58	-30.732
341.94	-31.772
342.30	-33.779
342.67	-32.023
343.03	-29.588
343.39	-29.231
343.75	-29.636
344.11	-29.144
344.48	-27.856
344.84	-27.684
345.20	-25.064
345.56	-27.452
345.92	-28.097
346.28	-24.695
346.65	-26.038
347.01	-26.133
347.37	-23.808
347.73	-21.133
348.09	-24.505
348.45	-20.303
348.82	-22.721
349.18	-24.272
349.54	-21.691
349.90	-21.738
350.26	-21.574
350.62	-19.579
350.98	-20.528
351.35	-18.411
351.71	-20.750
352.07	-20.440
352.43	-20.966
352.79	-17.439
353.15	-19.610
353.51	-17.756
353.87	-19.123
354.24	-18.553
354.60	-18.676
354.96	-16.613
355.32	-17.184
355.68	-17.932
356.04	-17.302
356.40	-17.527
356.76	-17.717
357.12	-15.545
357.48	-15.989
357.85	-15.449
358.21	-14.941
358.57	-14.382
358.93	-15.929
359.29	-15.104
359.65	-14.097
360.01	-13.633
360.37	-14.271
360.73	-15.021
361.09	-13.631
361.45	-12.870
361.81	-13.359
362.17	-13.439
362.53	-11.871
362.89	-12.988
363.25	-12.100
363.62	-11.836
363.98	-12.596
364.34	-13.638
364.70	-10.956
365.06	-11.229
365.42	-12.064
365.78	-11.383
366.14	-10.678
366.50	-10.575
366.86	-10.599
367.22	-10.759
367.58	-10.506
367.94	-10.167
368.30	-9.097
368.66	-9.963
369.02	-9.200
369.38	-9.760
369.74	-9.195
370.10	-9.724
370.46	-9.134
370.82	-9.616
371.18	-9.308
371.54	-8.495
371.90	-8.303
372.26	-8.584
372.62	-8.026
372.98	-8.150
373.33	-7.839
373.69	-7.928
374.05	-8.672
374.41	-8.237
374.77	-7.224
375.13	-8.084
375.49	-6.827
375.85	-6.503
376.21	-6.572
376.57	-6.842
376.93	-6.766
377.29	-6.366
377.65	-5.962
378.01	-6.387
378.37	-5.877
378.73	-5.929
379.08	-6.081
379.44	-5.521
379.80	-6.042
380.16	-5.488
380.52	-5.656
380.88	-5.299
381.24	-4.885
381.60	-5.281
381.96	-4.870
382.32	-4.601
382.67	-4.930
383.03	-4.341
383.39	-4.317
383.75	-4.431
384.11	-3.737
384.47	-4.001
384.83	-3.734
385.19	-3.452
385.54	-3.443
385.90	-3.327
386.26	-2.991
386.62	-3.017
386.98	-2.603
387.34	-2.667
387.70	-2.696
388.05	-2.503
388.41	-2.134
388.77	-1.618
389.13	-1.823
389.49	-1.391
389.85	-1.596
390.20	-1.875
390.56	-1.245
390.92	-1.219
391.28	-0.804
391.64	-1.073
391.99	-0.824
392.35	-0.721
392.71	-0.339
393.07	-0.595
393.43	-0.225
393.78	0.012
394.14	0.130
394.50	0.379
394.86	0.666
395.22	0.516
395.57	0.567
395.93	1.158
396.29	1.290
396.65	1.041
397.00	1.402
397.36	1.573
397.72	1.734
398.08	2.080
398.43	2.350
398.79	2.310
399.15	2.674
399.51	2.671
399.86	3.100
400.22	2.776
400.58	2.746
400.94	2.885
401.29	3.507
401.65	3.208
402.01	3.415
402.37	3.651
402.72	3.866
403.08	3.943
403.44	4.041
403.79	4.405
404.15	4.471
404.51	4.492
404.86	4.646
405.22	4.773
405.58	5.053
405.94	5.208
406.29	5.190
406.65	5.553
407.01	5.442
407.36	5.933
407.72	6.119
408.08	5.966
408.43	5.941
408.79	6.602
409.15	6.434
409.50	6.494
409.86	6.876
410.22	6.945
410.57	7.210
410.93	7.178
411.29	7.529
411.64	7.218
412.00	7.605
412.35	7.841
412.71	7.756
413.07	8.326
413.42	8.059
413.78	8.279
414.14	8.298
414.49	8.585
414.85	8.769
415.20	8.929
415.56	8.984
415.92	9.191
416.27	9.341
416.63	9.464
416.98	9.580
417.34	9.785
417.70	10.038
418.05	9.865
418.41	10.136
418.76	10.418
419.12	10.442
419.47	10.666
419.83	10.588
420.19	10.835
420.54	11.017
420.90	10.976
421.25	11.172
421.61	11.507
421.96	11.452
422.32	11.777
422.67	11.701
423.03	11.808
423.39	12.318
423.74	12.043
424.10	12.247
424.45	12.083
424.81	12.429
425.16	12.424
425.52	12.873
425.87	12.769
426.23	13.014
426.58	13.205
426.94	13.379
427.29	13.422
427.65	13.435
428.00	13.616
428.36	13.752
428.71	13.658
429.07	14.054
429.42	14.118
429.78	14.082
430.13	14.306
430.49	14.416
430.84	14.357
431.19	14.600
431.55	14.763
431.90	14.786
432.26	14.907
432.61	15.035
432.97	15.331
433.32	15.257
433.68	15.360
434.03	15.590
434.39	15.798
434.74	15.930
435.09	15.879
435.45	15.952
435.80	16.109
436.16	16.080
436.51	16.236
436.86	16.424
437.22	16.659
437.57	16.851
437.93	16.725
438.28	16.723
438.63	16.802
438.99	17.025
439.34	17.288
439.70	17.342
440.05	17.262
440.40	17.463
440.76	17.602
441.11	17.720
441.47	17.961
441.82	17.955
442.17	18.084
442.53	18.042
442.88	18.111
443.23	18.201
443.59	18.444
443.94	18.476
444.29	18.555
444.65	18.632
445.00	18.688
445.35	18.874
445.71	19.002
446.06	19.039
446.41	19.021
446.77	19.111
447.12	19.177
447.47	19.322
447.83	19.479
448.18	19.646
448.53	19.642
448.89	19.712
449.24	19.802
449.59	19.950
449.94	19.993
450.30	20.174
450.65	20.181
451.00	20.180
451.36	20.372
451.71	20.514
452.06	20.511
452.41	20.734
452.77	20.636
453.12	20.895
453.47	21.000
453.82	21.038
454.18	21.079
454.53	21.236
454.88	21.291
455.23	21.464
455.59	21.634
455.94	21.646
456.29	21.733
456.64	21.807
457.00	21.894
457.35	22.010
457.70	22.270
458.05	22.141
458.40	22.280
458.76	22.483
459.11	22.597
459.46	22.445
459.81	22.567
460.16	22.767
460.52	22.872
460.87	22.896
461.22	23.032
461.57	23.100
461.92	23.110
462.28	23.295
462.63	23.442
462.98	23.398
463.33	23.568
463.68	23.785
464.03	23.777
464.38	23.791
464.74	23.843
465.09	23.914
465.44	23.976
465.79	24.151
466.14	24.151
466.49	24.237
466.84	24.498
467.20	24.397
467.55	24.550
467.90	24.652
468.25	24.914
468.60	24.768
468.95	24.806
469.30	24.844
469.65	24.935
470.00	25.074
470.36	25.034
470.71	25.096
471.06	25.227
471.41	25.233
471.76	25.320
472.11	25.480
472.46	25.386
472.81	25.389
473.16	25.577
473.51	25.569
473.86	25.653
474.21	25.716
474.56	25.698
474.91	25.733
475.26	25.694
475.62	25.771
475.97	25.777
476.32	25.857
476.67	25.783
477.02	25.683
477.37	25.959
477.72	25.896
478.07	25.828
478.42	25.929
478.77	25.920
479.12	25.903
479.47	25.935
479.82	25.980
480.17	25.991
480.52	25.962
480.87	25.909
481.22	26.037
481.57	26.001
481.92	25.941
482.27	26.074
482.62	26.128
482.97	26.021
483.32	25.976
483.67	26.007
484.02	25.984
484.36	26.046
484.71	26.107
485.06	26.100
485.41	26.108
485.76	26.183
486.11	26.261
486.46	26.236
486.81	26.285
487.16	26.333
487.51	26.351
487.86	26.437
488.21	26.486
488.56	26.410
488.91	26.592
489.25	26.695
489.60	26.667
489.95	26.750
490.30	26.860
490.65	26.877
491.00	26.904
491.35	27.032
491.70	27.053
492.05	27.195
492.39	27.287
492.74	27.334
493.09	27.388
493.44	27.427
493.79	27.588
494.14	27.632
494.49	27.669
494.83	27.765
495.18	27.770
495.53	27.873
495.88	27.966
496.23	28.153
496.58	28.103
496.92	28.222
497.27	28.253
497.62	28.374
497.97	28.481
498.32	28.569
498.67	28.587
499.01	28.684
499.36	28.817
499.71	28.778
500.06	28.913
500.41	28.948
500.75	29.037
501.10	29.135
501.45	29.115
501.80	29.117
502.14	29.251
502.49	29.271
502.84	29.337
503.19	29.412
503.53	29.526
503.88	29.464
504.23	29.514
504.58	29.540
504.92	29.670
505.27	29.736
505.62	29.687
505.97	29.760
506.31	29.807
506.66	29.774
507.01	29.857
507.36	29.835
507.70	29.838
508.05	29.818
508.40	29.818
508.74	29.835
509.09	29.812
509.44	29.754
509.79	29.726
510.13	29.739
510.48	29.661
510.83	29.668
511.17	29.673
511.52	29.635
511.87	29.588
512.21	29.619
512.56	29.595
512.91	29.681
513.25	29.685
513.60	29.667
513.95	29.719
514.29	29.778
514.64	29.791
514.98	29.805
515.33	29.867
515.68	29.931
516.02	30.015
516.37	29.923
516.72	30.019
517.06	30.054
517.41	30.055
517.75	30.124
518.10	30.147
518.45	30.228
518.79	30.187
519.14	30.262
519.48	30.209
519.83	30.224
520.18	30.321
520.52	30.318
520.87	30.370
521.21	30.357
521.56	30.394
521.90	30.347
522.25	30.370
522.60	30.319
522.94	30.436
523.29	30.336
523.63	30.375
523.98	30.385
524.32	30.399
524.67	30.366
525.01	30.299
525.36	30.285
525.70	30.249
526.05	30.250
526.39	30.163
526.74	30.154
527.08	30.099
527.43	30.017
527.77	29.958
528.12	29.952
528.46	29.844
528.81	29.791
529.15	29.669
529.50	29.594
529.84	29.508
530.19	29.395
530.53	29.344
530.88	29.201
531.22	29.111
531.57	28.946
531.91	28.860
532.26	28.717
532.60	28.567
532.94	28.460
533.29	28.208
533.63	28.118
533.98	27.902
534.32	27.803
534.67	27.602
535.01	27.360
535.35	27.248
535.70	27.008
536.04	26.816
536.39	26.640
536.73	26.369
537.07	26.207
537.42	25.986
537.76	25.728
538.11	25.619
538.45	25.403
538.79	25.152
539.14	24.929
539.48	24.718
539.82	24.595
540.17	24.341
540.51	24.197
540.85	23.967
541.20	23.809
541.54	23.670
541.89	23.497
542.23	23.337
542.57	23.210
542.92	23.173
543.26	23.032
543.60	22.971
543.94	22.886
544.29	22.878
544.63	22.720
544.97	22.736
545.32	22.673
545.66	22.669
546.00	22.689
546.35	22.597
546.69	22.658
547.03	22.692
547.37	22.674
547.72	22.749
548.06	22.789
548.40	22.764
548.75	22.818
549.09	22.888
549.43	22.918
549.77	23.023
550.12	23.004
550.46	23.196
550.80	23.250
551.14	23.382
551.49	23.446
551.83	23.646
552.17	23.796
552.51	23.866
552.85	24.041
553.20	24.193
553.54	24.357
553.88	24.519
554.22	24.707
554.56	24.924
554.91	25.155
555.25	25.374
555.59	25.540
555.93	25.769
556.27	25.995
556.62	26.206
556.96	26.537
557.30	26.760
557.64	26.934
557.98	27.206
558.32	27.443
558.67	27.774
559.01	27.978
559.35	28.230
559.69	28.386
560.03	28.688
560.37	28.861
560.71	29.165
561.05	29.416
561.40	29.520
561.74	29.777
562.08	30.000
562.42	30.213
562.76	30.464
563.10	30.620
563.44	30.757
563.78	30.969
564.12	31.126
564.46	31.314
564.81	31.425
565.15	31.589
565.49	31.700
565.83	31.809
566.17	31.936
566.51	31.961
566.85	32.080
567.19	32.151
567.53	32.280
567.87	32.288
568.21	32.410
568.55	32.389
568.89	32.435
569.23	32.578
569.57	32.528
569.91	32.568
570.25	32.483
570.59	32.566
570.93	32.514
571.27	32.435
571.61	32.418
571.95	32.435
572.29	32.316
572.63	32.214
572.97	32.142
573.31	32.114
573.65	32.015
573.99	31.916
574.33	31.874
574.67	31.814
575.01	31.576
575.35	31.530
575.69	31.411
576.03	31.334
576.37	31.210
576.71	31.036
577.05	30.938
577.39	30.764
577.73	30.644
578.06	30.475
578.40	30.329
578.74	30.157
579.08	29.982
579.42	29.782
579.76	29.582
580.10	29.413
580.44	29.232
580.78	29.049
581.12	28.807
581.45	28.605
581.79	28.456
582.13	28.240
582.47	28.095
582.81	27.844
583.15	27.693
583.49	27.551
583.83	27.380
584.16	27.183
584.50	27.071
584.84	26.890
585.18	26.747
585.52	26.623
585.86	26.421
586.19	26.281
586.53	26.221
586.87	26.060
587.21	25.819
587.55	25.655
587.88	25.595
588.22	25.401
588.56	25.190
588.90	24.946
589.24	24.814
589.57	24.685
589.91	24.427
590.25	24.247
590.59	24.019
590.92	23.812
591.26	23.573
591.60	23.376
591.94	23.201
592.27	22.902
592.61	22.655
592.95	22.366
593.29	22.126
593.62	21.789
593.96	21.566
594.30	21.260
594.64	20.928
594.97	20.632
595.31	20.242
595.65	19.877
595.98	19.498
596.32	19.129
596.66	18.663
597.00	18.273
597.33	17.848
597.67	17.411
598.01	16.941
598.34	16.479
598.68	16.090
599.02	15.637
599.35	15.217
599.69	14.770
600.03	14.376
600.36	14.058
600.70	13.695
601.03	13.380
601.37	13.120
601.71	12.789
602.04	12.467
602.38	12.212
602.72	11.960
603.05	11.703
603.39	11.420
603.72	11.208
604.06	10.928
604.40	10.692
604.73	10.408
605.07	10.109
605.40	9.857
605.74	9.584
606.08	9.325
606.41	9.064
606.75	8.818
607.08	8.541
607.42	8.231
607.75	7.967
608.09	7.728
608.42	7.457
608.76	7.168
609.10	6.909
609.43	6.637
609.77	6.368
610.10	6.108
610.44	5.901
610.77	5.583
611.11	5.388
611.44	5.153
611.78	4.915
612.11	4.675
612.45	4.480
612.78	4.257
613.12	4.051
613.45	3.834
613.79	3.632
614.12	3.475
614.46	3.288
614.79	3.136
615.13	2.971
615.46	2.816
615.79	2.683
616.13	2.548
616.46	2.408
616.80	2.293
617.13	2.196
617.47	2.092
617.80	2.003
618.13	1.918
618.47	1.848
618.80	1.787
619.14	1.688
619.47	1.633
619.81	1.574
620.14	1.511
620.47	1.458
620.81	1.390
621.14	1.352
621.47	1.299
621.81	1.283
622.14	1.210
622.48	1.185
622.81	1.139
623.14	1.095
623.48	1.087
623.81	1.043
624.14	1.032
624.48	1.005
624.81	0.981
625.14	0.950
625.48	0.948
625.81	0.926
626.14	0.926
626.48	0.915
626.81	0.914
627.14	0.911
627.48	0.913
