SpectraSuite Data File
++++++++++++++++++++++++++++++++++++
Date: Mon Apr 20 20:37:49 BST 2015
User: mpfc3
Dark Spectrum Present: Yes
Reference Spectrum Present: Yes
Number of Sampled Component Spectra: 1
Spectrometers: USB2E3636
Integration Time (usec): 30000 (USB2E3636)
Spectra Averaged: 100 (USB2E3636)
Boxcar Smoothing: 0 (USB2E3636)
Correct for Electrical Dark: No (USB2E3636)
Strobe/Lamp Enabled: No (USB2E3636)
Correct for Detector Non-linearity: No (USB2E3636)
Correct for Stray Light: No (USB2E3636)
Number of Pixels in Processed Spectrum: 2048
>>>>>Begin Processed Spectral Data<<<<<
180.28	0.000
180.65	206.154
181.02	180.769
181.39	191.348
181.77	197.309
182.14	187.800
182.51	208.725
182.88	195.354
183.25	221.145
183.63	186.528
184.00	188.372
184.37	198.344
184.74	194.790
185.11	202.050
185.49	211.860
185.86	173.743
186.23	220.665
186.60	206.208
186.97	219.266
187.35	208.913
187.72	220.595
188.09	175.446
188.46	196.653
188.83	185.375
189.20	-2100.000
189.58	-48.674
189.95	-49.282
190.32	-51.062
190.69	-47.215
191.06	-54.215
191.43	-53.352
191.81	-43.680
192.18	-49.867
192.55	-52.682
192.92	-46.871
193.29	-50.233
193.66	-45.120
194.03	-49.395
194.41	-48.523
194.78	-52.213
195.15	-53.726
195.52	-50.066
195.89	-51.675
196.26	-51.090
196.63	-58.550
197.01	-51.928
197.38	-51.811
197.75	-47.809
198.12	-47.184
198.49	-51.226
198.86	-41.313
199.23	-53.942
199.60	-49.075
199.98	-58.994
200.35	-42.346
200.72	-51.182
201.09	-56.927
201.46	-51.712
201.83	-56.683
202.20	-50.674
202.57	-54.520
202.94	-55.856
203.31	-50.101
203.69	-51.289
204.06	-46.999
204.43	-48.322
204.80	-55.379
205.17	-58.699
205.54	-55.379
205.91	-50.764
206.28	-53.043
206.65	-57.299
207.02	-58.618
207.39	-54.706
207.76	-54.108
208.14	-54.597
208.51	-51.935
208.88	-52.550
209.25	-50.615
209.62	-58.309
209.99	-58.517
210.36	-51.951
210.73	-57.842
211.10	-57.406
211.47	-51.776
211.84	-54.986
212.21	-57.360
212.58	-56.751
212.95	-55.034
213.32	-57.186
213.69	-50.919
214.06	-52.639
214.43	-52.988
214.80	-62.179
215.17	-57.710
215.55	-60.656
215.92	-54.742
216.29	-54.440
216.66	-54.444
217.03	-62.198
217.40	-53.777
217.77	-54.444
218.14	-60.247
218.51	-59.360
218.88	-60.253
219.25	-48.913
219.62	-65.976
219.99	-62.192
220.36	-62.327
220.73	-59.340
221.10	-59.053
221.47	-58.583
221.84	-67.430
222.21	-67.867
222.58	-62.783
222.95	-67.895
223.32	-65.607
223.69	-61.440
224.06	-53.870
224.43	-58.062
224.80	-63.953
225.17	-69.983
225.54	-57.950
225.91	-60.063
226.27	-51.702
226.64	-63.198
227.01	-63.898
227.38	-69.091
227.75	-70.104
228.12	-63.799
228.49	-65.673
228.86	-66.285
229.23	-72.963
229.60	-66.933
229.97	-68.122
230.34	-66.978
230.71	-77.431
231.08	-69.604
231.45	-65.478
231.82	-61.974
232.19	-68.421
232.56	-68.549
232.93	-72.566
233.30	-73.886
233.66	-69.573
234.03	-65.313
234.40	-60.211
234.77	-71.232
235.14	-70.856
235.51	-78.730
235.88	-74.376
236.25	-73.909
236.62	-66.457
236.99	-71.402
237.36	-67.938
237.73	-71.538
238.09	-69.027
238.46	-72.509
238.83	-72.414
239.20	-74.331
239.57	-65.483
239.94	-71.021
240.31	-70.631
240.68	-68.710
241.05	-75.453
241.41	-70.009
241.78	-81.467
242.15	-70.029
242.52	-71.035
242.89	-87.382
243.26	-67.274
243.63	-66.875
244.00	-83.405
244.36	-62.973
244.73	-73.669
245.10	-80.363
245.47	-64.595
245.84	-72.665
246.21	-81.375
246.58	-80.777
246.94	-71.173
247.31	-81.067
247.68	-75.026
248.05	-80.402
248.42	-83.851
248.79	-82.255
249.15	-78.608
249.52	-79.145
249.89	-81.535
250.26	-76.200
250.63	-79.767
251.00	-86.218
251.36	-79.438
251.73	-74.621
252.10	-85.761
252.47	-88.620
252.84	-81.124
253.20	-77.687
253.57	-79.545
253.94	-90.476
254.31	-77.711
254.68	-86.167
255.05	-84.574
255.41	-81.458
255.78	-89.927
256.15	-81.270
256.52	-76.938
256.88	-86.277
257.25	-89.965
257.62	-80.649
257.99	-73.630
258.36	-82.535
258.72	-90.434
259.09	-93.039
259.46	-99.277
259.83	-85.210
260.19	-75.407
260.56	-93.333
260.93	-85.320
261.30	-89.640
261.67	-106.492
262.03	-91.164
262.40	-81.789
262.77	-92.265
263.14	-95.673
263.50	-90.639
263.87	-90.736
264.24	-85.714
264.61	-91.580
264.97	-83.726
265.34	-91.010
265.71	-83.757
266.07	-78.237
266.44	-89.498
266.81	-90.289
267.18	-89.201
267.54	-91.545
267.91	-83.019
268.28	-91.268
268.64	-86.047
269.01	-78.070
269.38	-96.702
269.75	-95.566
270.11	-106.650
270.48	-98.210
270.85	-76.415
271.21	-91.355
271.58	-93.977
271.95	-94.713
272.32	-85.268
272.68	-85.651
273.05	-98.451
273.42	-84.598
273.78	-78.571
274.15	-92.408
274.52	-87.946
274.88	-92.732
275.25	-82.790
275.62	-79.577
275.98	-89.625
276.35	-88.035
276.72	-76.749
277.08	-94.206
277.45	-90.556
277.82	-91.385
278.18	-84.013
278.55	-98.511
278.92	-95.540
279.28	-77.894
279.65	-87.824
280.01	-91.390
280.38	-88.401
280.75	-90.621
281.11	-101.415
281.48	-86.543
281.85	-94.952
282.21	-97.098
282.58	-90.185
282.95	-92.362
283.31	-90.035
283.68	-87.931
284.04	-67.252
284.41	-95.873
284.78	-90.205
285.14	-91.389
285.51	-84.101
285.87	-85.294
286.24	-87.370
286.61	-102.567
286.97	-87.744
287.34	-104.643
287.70	-95.535
288.07	-80.333
288.44	-88.702
288.80	-81.755
289.17	-86.399
289.53	-83.007
289.90	-81.250
290.26	-94.850
290.63	-75.951
291.00	-96.970
291.36	-77.708
291.73	-70.332
292.09	-82.249
292.46	-78.237
292.82	-92.522
293.19	-89.323
293.56	-87.779
293.92	-83.518
294.29	-100.823
294.65	-86.343
295.02	-90.370
295.38	-103.103
295.75	-77.861
296.11	-81.298
296.48	-79.162
296.84	-89.552
297.21	-100.352
297.57	-90.835
297.94	-96.113
298.30	-90.380
298.67	-88.677
299.04	-98.118
299.40	-78.908
299.77	-78.317
300.13	-91.399
300.50	-75.963
300.86	-85.618
301.23	-85.177
301.59	-72.250
301.96	-104.182
302.32	-86.400
302.69	-91.391
303.05	-80.918
303.42	-82.365
303.78	-82.646
304.14	-77.755
304.51	-76.979
304.87	-98.736
305.24	-68.004
305.60	-77.622
305.97	-71.386
306.33	-74.280
306.70	-72.865
307.06	-66.635
307.43	-73.027
307.79	-81.321
308.16	-65.396
308.52	-79.712
308.88	-86.830
309.25	-76.000
309.61	-70.209
309.98	-81.250
310.34	-81.034
310.71	-74.238
311.07	-73.611
311.44	-81.011
311.80	-70.983
312.16	-71.564
312.53	-74.049
312.89	-77.379
313.26	-67.837
313.62	-74.951
313.98	-68.215
314.35	-78.122
314.71	-71.332
315.08	-78.044
315.44	-73.206
315.80	-73.521
316.17	-68.847
316.53	-64.970
316.90	-58.045
317.26	-77.419
317.62	-65.291
317.99	-63.158
318.35	-59.102
318.72	-59.102
319.08	-60.314
319.44	-71.817
319.81	-57.131
320.17	-61.020
320.53	-71.141
320.90	-55.887
321.26	-56.047
321.62	-55.000
321.99	-58.691
322.35	-52.187
322.72	-52.259
323.08	-55.211
323.44	-55.198
323.81	-56.349
324.17	-57.328
324.53	-56.000
324.90	-54.050
325.26	-51.878
325.62	-52.920
325.99	-57.767
326.35	-49.489
326.71	-51.164
327.08	-45.334
327.44	-47.152
327.80	-46.684
328.16	-46.773
328.53	-52.131
328.89	-53.968
329.25	-50.929
329.62	-39.624
329.98	-37.474
330.34	-40.666
330.71	-45.744
331.07	-40.935
331.43	-37.889
331.79	-37.531
332.16	-38.625
332.52	-36.939
332.88	-35.798
333.24	-40.858
333.61	-38.345
333.97	-38.886
334.33	-34.179
334.70	-34.861
335.06	-33.574
335.42	-37.674
335.78	-32.306
336.15	-30.441
336.51	-33.608
336.87	-33.817
337.23	-33.392
337.60	-29.818
337.96	-31.440
338.32	-28.785
338.68	-30.537
339.04	-28.743
339.41	-28.566
339.77	-28.102
340.13	-27.645
340.49	-29.008
340.86	-26.614
341.22	-26.829
341.58	-25.691
341.94	-27.126
342.30	-27.283
342.67	-26.289
343.03	-25.150
343.39	-25.095
343.75	-23.273
344.11	-23.471
344.48	-21.962
344.84	-22.068
345.20	-22.293
345.56	-24.129
345.92	-22.105
346.28	-20.335
346.65	-22.070
347.01	-22.952
347.37	-20.445
347.73	-19.292
348.09	-21.549
348.45	-16.033
348.82	-19.701
349.18	-18.664
349.54	-18.980
349.90	-18.273
350.26	-17.837
350.62	-17.372
350.98	-16.000
351.35	-15.770
351.71	-17.669
352.07	-16.239
352.43	-17.077
352.79	-13.587
353.15	-15.688
353.51	-12.975
353.87	-16.850
354.24	-14.514
354.60	-14.232
354.96	-13.847
355.32	-14.592
355.68	-13.806
356.04	-14.574
356.40	-12.940
356.76	-14.822
357.12	-12.420
357.48	-13.357
357.85	-13.668
358.21	-12.099
358.57	-11.528
358.93	-13.400
359.29	-12.220
359.65	-11.643
360.01	-10.469
360.37	-11.399
360.73	-11.588
361.09	-10.943
361.45	-10.296
361.81	-10.765
362.17	-9.925
362.53	-10.290
362.89	-10.963
363.25	-10.138
363.62	-9.646
363.98	-10.908
364.34	-10.635
364.70	-9.609
365.06	-9.060
365.42	-9.460
365.78	-8.718
366.14	-9.069
366.50	-8.738
366.86	-9.053
367.22	-7.946
367.58	-8.737
367.94	-8.112
368.30	-7.348
368.66	-7.707
369.02	-7.317
369.38	-8.155
369.74	-7.675
370.10	-7.717
370.46	-7.031
370.82	-6.976
371.18	-7.429
371.54	-6.052
371.90	-7.204
372.26	-7.136
372.62	-6.896
372.98	-6.079
373.33	-6.184
373.69	-6.362
374.05	-6.678
374.41	-6.712
374.77	-6.303
375.13	-5.947
375.49	-5.780
375.85	-5.474
376.21	-5.580
376.57	-5.577
376.93	-5.272
377.29	-5.062
377.65	-5.160
378.01	-4.994
378.37	-4.729
378.73	-4.674
379.08	-4.286
379.44	-4.533
379.80	-4.076
380.16	-4.069
380.52	-4.143
380.88	-4.098
381.24	-3.743
381.60	-4.099
381.96	-3.792
382.32	-3.709
382.67	-3.048
383.03	-3.321
383.39	-3.593
383.75	-2.975
384.11	-2.679
384.47	-3.360
384.83	-2.294
385.19	-3.021
385.54	-2.153
385.90	-2.469
386.26	-2.464
386.62	-1.300
386.98	-1.707
387.34	-1.376
387.70	-1.932
388.05	-1.358
388.41	-1.299
388.77	-1.006
389.13	-0.646
389.49	-0.756
389.85	-0.709
390.20	-0.459
390.56	-0.716
390.92	-0.530
391.28	-0.064
391.64	0.326
391.99	0.031
392.35	0.579
392.71	0.497
393.07	0.498
393.43	0.541
393.78	1.049
394.14	1.341
394.50	1.288
394.86	1.543
395.22	1.559
395.57	1.677
395.93	2.022
396.29	1.999
396.65	1.918
397.00	2.356
397.36	2.405
397.72	2.339
398.08	2.605
398.43	2.768
398.79	2.997
399.15	3.187
399.51	3.496
399.86	3.616
400.22	3.833
400.58	3.172
400.94	3.740
401.29	4.076
401.65	4.177
402.01	4.307
402.37	4.594
402.72	4.442
403.08	4.881
403.44	4.819
403.79	5.029
404.15	4.833
404.51	5.294
404.86	5.416
405.22	5.922
405.58	5.644
405.94	5.675
406.29	6.036
406.65	6.256
407.01	6.039
407.36	6.486
407.72	6.569
408.08	6.485
408.43	6.641
408.79	7.072
409.15	7.133
409.50	6.989
409.86	7.565
410.22	7.492
410.57	7.536
410.93	7.887
411.29	8.173
411.64	7.969
412.00	8.202
412.35	8.350
412.71	8.377
413.07	8.709
413.42	8.619
413.78	8.970
414.14	8.955
414.49	9.040
414.85	9.284
415.20	9.286
415.56	9.578
415.92	9.965
416.27	9.869
416.63	9.968
416.98	10.112
417.34	9.999
417.70	10.329
418.05	10.449
418.41	10.680
418.76	10.681
419.12	11.086
419.47	11.116
419.83	10.907
420.19	11.418
420.54	11.608
420.90	11.627
421.25	11.579
421.61	12.002
421.96	11.808
422.32	12.273
422.67	12.006
423.03	12.241
423.39	12.416
423.74	12.550
424.10	12.748
424.45	12.569
424.81	12.815
425.16	12.810
425.52	13.194
425.87	12.978
426.23	13.343
426.58	13.533
426.94	13.567
427.29	13.777
427.65	13.921
428.00	14.019
428.36	14.053
428.71	14.025
429.07	14.300
429.42	14.397
429.78	14.488
430.13	14.793
430.49	14.703
430.84	14.834
431.19	15.083
431.55	14.982
431.90	15.235
432.26	15.387
432.61	15.432
432.97	15.736
433.32	15.591
433.68	15.673
434.03	15.969
434.39	16.303
434.74	16.156
435.09	16.219
435.45	16.383
435.80	16.568
436.16	16.536
436.51	16.676
436.86	16.686
437.22	17.033
437.57	17.006
437.93	17.100
438.28	17.193
438.63	17.331
438.99	17.397
439.34	17.683
439.70	17.596
440.05	17.633
440.40	17.639
440.76	17.903
441.11	17.961
441.47	18.164
441.82	18.197
442.17	18.402
442.53	18.285
442.88	18.495
443.23	18.480
443.59	18.587
443.94	18.695
444.29	18.745
444.65	18.873
445.00	19.066
445.35	19.290
445.71	19.297
446.06	19.275
446.41	19.406
446.77	19.362
447.12	19.462
447.47	19.679
447.83	19.855
448.18	19.988
448.53	19.892
448.89	20.060
449.24	20.034
449.59	20.181
449.94	20.300
450.30	20.463
450.65	20.545
451.00	20.603
451.36	20.895
451.71	20.783
452.06	20.798
452.41	20.946
452.77	20.924
453.12	21.211
453.47	21.356
453.82	21.344
454.18	21.389
454.53	21.387
454.88	21.500
455.23	21.639
455.59	21.719
455.94	21.897
456.29	21.950
456.64	22.137
457.00	22.211
457.35	22.442
457.70	22.349
458.05	22.503
458.40	22.541
458.76	22.757
459.11	22.721
459.46	22.795
459.81	22.886
460.16	23.112
460.52	23.151
460.87	23.275
461.22	23.395
461.57	23.422
461.92	23.355
462.28	23.497
462.63	23.679
462.98	23.749
463.33	23.782
463.68	23.927
464.03	23.965
464.38	24.024
464.74	24.195
465.09	24.109
465.44	24.192
465.79	24.337
466.14	24.497
466.49	24.441
466.84	24.628
467.20	24.704
467.55	24.871
467.90	24.836
468.25	25.142
468.60	25.107
468.95	25.062
469.30	25.142
469.65	25.225
470.00	25.235
470.36	25.329
470.71	25.392
471.06	25.335
471.41	25.427
471.76	25.477
472.11	25.580
472.46	25.598
472.81	25.672
473.16	25.735
473.51	25.711
473.86	25.811
474.21	25.827
474.56	25.827
474.91	25.856
475.26	25.936
475.62	25.998
475.97	25.889
476.32	25.964
476.67	26.043
477.02	25.992
477.37	26.122
477.72	26.129
478.07	26.131
478.42	26.099
478.77	26.128
479.12	26.048
479.47	26.114
479.82	26.039
480.17	26.151
480.52	26.122
480.87	26.105
481.22	26.151
481.57	26.082
481.92	26.156
482.27	26.182
482.62	26.232
482.97	26.211
483.32	26.194
483.67	26.228
484.02	26.129
484.36	26.234
484.71	26.190
485.06	26.293
485.41	26.319
485.76	26.365
486.11	26.383
486.46	26.382
486.81	26.433
487.16	26.501
487.51	26.525
487.86	26.505
488.21	26.631
488.56	26.659
488.91	26.742
489.25	26.825
489.60	26.943
489.95	26.865
490.30	26.974
490.65	27.063
491.00	27.079
491.35	27.205
491.70	27.190
492.05	27.193
492.39	27.395
492.74	27.452
493.09	27.529
493.44	27.396
493.79	27.678
494.14	27.745
494.49	27.872
494.83	27.860
495.18	27.988
495.53	28.047
495.88	28.141
496.23	28.185
496.58	28.260
496.92	28.345
497.27	28.435
497.62	28.464
497.97	28.613
498.32	28.661
498.67	28.728
499.01	28.832
499.36	28.981
499.71	28.907
500.06	28.997
500.41	29.112
500.75	29.106
501.10	29.218
501.45	29.178
501.80	29.262
502.14	29.374
502.49	29.385
502.84	29.411
503.19	29.585
503.53	29.625
503.88	29.594
504.23	29.649
504.58	29.660
504.92	29.839
505.27	29.847
505.62	29.838
505.97	29.928
506.31	29.974
506.66	29.934
507.01	29.955
507.36	29.913
507.70	30.002
508.05	29.946
508.40	29.970
508.74	30.009
509.09	29.888
509.44	29.915
509.79	29.940
510.13	29.854
510.48	29.857
510.83	29.753
511.17	29.738
511.52	29.700
511.87	29.743
512.21	29.737
512.56	29.715
512.91	29.790
513.25	29.793
513.60	29.855
513.95	29.864
514.29	29.893
514.64	29.910
514.98	29.957
515.33	29.990
515.68	30.047
516.02	30.097
516.37	30.043
516.72	30.136
517.06	30.220
517.41	30.187
517.75	30.216
518.10	30.288
518.45	30.294
518.79	30.362
519.14	30.368
519.48	30.357
519.83	30.304
520.18	30.382
520.52	30.466
520.87	30.445
521.21	30.454
521.56	30.460
521.90	30.492
522.25	30.485
522.60	30.472
522.94	30.494
523.29	30.459
523.63	30.475
523.98	30.440
524.32	30.472
524.67	30.481
525.01	30.382
525.36	30.428
525.70	30.342
526.05	30.352
526.39	30.324
526.74	30.260
527.08	30.162
527.43	30.160
527.77	30.083
528.12	30.013
528.46	29.945
528.81	29.904
529.15	29.873
529.50	29.700
529.84	29.618
530.19	29.535
530.53	29.389
530.88	29.258
531.22	29.257
531.57	29.020
531.91	28.959
532.26	28.816
532.60	28.737
532.94	28.531
533.29	28.325
533.63	28.232
533.98	28.036
534.32	27.879
534.67	27.766
535.01	27.535
535.35	27.302
535.70	27.088
536.04	26.931
536.39	26.711
536.73	26.518
537.07	26.250
537.42	26.076
537.76	25.841
538.11	25.644
538.45	25.447
538.79	25.229
539.14	25.019
539.48	24.836
539.82	24.677
540.17	24.421
540.51	24.279
540.85	24.072
541.20	23.940
541.54	23.734
541.89	23.587
542.23	23.466
542.57	23.297
542.92	23.242
543.26	23.128
543.60	23.038
543.94	22.999
544.29	22.925
544.63	22.829
544.97	22.832
545.32	22.766
545.66	22.716
546.00	22.720
546.35	22.673
546.69	22.703
547.03	22.696
547.37	22.751
547.72	22.799
548.06	22.811
548.40	22.800
548.75	22.867
549.09	22.948
549.43	23.009
549.77	23.095
550.12	23.133
550.46	23.261
550.80	23.335
551.14	23.453
551.49	23.510
551.83	23.675
552.17	23.867
552.51	23.952
552.85	24.122
553.20	24.214
553.54	24.469
553.88	24.648
554.22	24.762
554.56	24.958
554.91	25.255
555.25	25.458
555.59	25.661
555.93	25.930
556.27	26.163
556.62	26.320
556.96	26.620
557.30	26.787
557.64	27.018
557.98	27.313
558.32	27.531
558.67	27.786
559.01	28.033
559.35	28.290
559.69	28.531
560.03	28.780
560.37	28.959
560.71	29.290
561.05	29.479
561.40	29.679
561.74	29.886
562.08	30.121
562.42	30.351
562.76	30.518
563.10	30.705
563.44	30.870
563.78	31.065
564.12	31.243
564.46	31.480
564.81	31.508
565.15	31.731
565.49	31.812
565.83	31.874
566.17	32.050
566.51	32.102
566.85	32.237
567.19	32.308
567.53	32.363
567.87	32.520
568.21	32.542
568.55	32.514
568.89	32.614
569.23	32.621
569.57	32.615
569.91	32.634
570.25	32.575
570.59	32.621
570.93	32.592
571.27	32.545
571.61	32.540
571.95	32.448
572.29	32.426
572.63	32.324
572.97	32.255
573.31	32.259
573.65	32.194
573.99	32.040
574.33	31.986
574.67	31.894
575.01	31.650
575.35	31.689
575.69	31.540
576.03	31.383
576.37	31.334
576.71	31.158
577.05	31.059
577.39	30.792
577.73	30.708
578.06	30.572
578.40	30.426
578.74	30.224
579.08	30.014
579.42	29.949
579.76	29.724
580.10	29.490
580.44	29.283
580.78	29.136
581.12	28.956
581.45	28.824
581.79	28.591
582.13	28.372
582.47	28.185
582.81	27.935
583.15	27.793
583.49	27.627
583.83	27.438
584.16	27.271
584.50	27.135
584.84	27.046
585.18	26.824
585.52	26.749
585.86	26.540
586.19	26.381
586.53	26.333
586.87	26.146
587.21	25.913
587.55	25.772
587.88	25.638
588.22	25.457
588.56	25.297
588.90	25.036
589.24	24.894
589.57	24.756
589.91	24.514
590.25	24.367
590.59	24.114
590.92	23.887
591.26	23.699
591.60	23.427
591.94	23.247
592.27	22.947
592.61	22.717
592.95	22.446
593.29	22.156
593.62	21.894
593.96	21.625
594.30	21.338
594.64	20.989
594.97	20.688
595.31	20.336
595.65	20.018
595.98	19.629
596.32	19.174
596.66	18.777
597.00	18.351
597.33	17.981
597.67	17.507
598.01	17.053
598.34	16.595
598.68	16.160
599.02	15.711
599.35	15.288
599.69	14.894
600.03	14.498
600.36	14.087
600.70	13.780
601.03	13.422
601.37	13.154
601.71	12.894
602.04	12.558
602.38	12.295
602.72	11.991
603.05	11.776
603.39	11.518
603.72	11.251
604.06	10.986
604.40	10.719
604.73	10.482
605.07	10.200
605.40	9.927
605.74	9.693
606.08	9.403
606.41	9.128
606.75	8.851
607.08	8.581
607.42	8.300
607.75	8.065
608.09	7.793
608.42	7.508
608.76	7.230
609.10	6.962
609.43	6.701
609.77	6.450
610.10	6.188
610.44	5.947
610.77	5.672
611.11	5.455
611.44	5.214
611.78	4.950
612.11	4.755
612.45	4.517
612.78	4.299
613.12	4.110
613.45	3.905
613.79	3.692
614.12	3.524
614.46	3.344
614.79	3.162
615.13	3.033
615.46	2.875
615.79	2.727
616.13	2.593
616.46	2.459
616.80	2.350
617.13	2.247
617.47	2.171
617.80	2.071
618.13	1.986
618.47	1.890
618.80	1.850
619.14	1.741
619.47	1.698
619.81	1.620
620.14	1.575
620.47	1.513
620.81	1.450
621.14	1.408
621.47	1.376
621.81	1.303
622.14	1.268
622.48	1.222
622.81	1.209
623.14	1.169
623.48	1.124
623.81	1.124
624.14	1.054
624.48	1.056
624.81	1.032
625.14	1.010
625.48	0.989
625.81	0.982
626.14	0.964
626.48	0.959
626.81	0.950
627.14	0.963
627.48	0.964
627.81	0.959
628.14	1.003
628.47	0.992
628.81	1.032
629.14	1.062
629.47	1.079
629.81	1.099
630.14	1.141
