SpectraSuite Data File
++++++++++++++++++++++++++++++++++++
Date: Tue Apr 07 18:48:48 BST 2015
User: mpfc3
Spectrometer Serial Number: USB2E3636
Spectrometer Channel: 0
Integration Time (usec): 30000
Spectra Averaged: 1
Boxcar Smoothing: 0
Correct for Electrical Dark: No
Strobe/Lamp Enabled: No
Correct for Detector Non-linearity: No
Correct for Stray Light: No
Number of Pixels in Spectrum: 2048
>>>>>Begin Spectral Data<<<<<
180.28	0.000
180.65	158.000
181.02	161.000
181.39	161.000
181.77	159.000
182.14	158.000
182.51	162.000
182.88	157.000
183.25	162.000
183.63	158.000
184.00	159.000
184.37	161.000
184.74	156.000
185.11	163.000
185.49	162.000
185.86	160.000
186.23	161.000
186.60	158.000
186.97	162.000
187.35	161.000
187.72	161.000
188.09	159.000
188.46	165.000
188.83	163.000
189.20	166.000
189.58	160.000
189.95	159.000
190.32	164.000
190.69	163.000
191.06	162.000
191.43	159.000
191.81	159.000
192.18	163.000
192.55	161.000
192.92	158.000
193.29	159.000
193.66	167.000
194.03	162.000
194.41	162.000
194.78	163.000
195.15	166.000
195.52	160.000
195.89	161.000
196.26	158.000
196.63	164.000
197.01	163.000
197.38	165.000
197.75	162.000
198.12	160.000
198.49	163.000
198.86	168.000
199.23	164.000
199.60	162.000
199.98	158.000
200.35	167.000
200.72	164.000
201.09	159.000
201.46	159.000
201.83	158.000
202.20	164.000
202.57	162.000
202.94	162.000
203.31	163.000
203.69	169.000
204.06	164.000
204.43	162.000
204.80	163.000
205.17	166.000
205.54	164.000
205.91	162.000
206.28	160.000
206.65	164.000
207.02	166.000
207.39	169.000
207.76	163.000
208.14	162.000
208.51	166.000
208.88	162.000
209.25	164.000
209.62	161.000
209.99	163.000
210.36	161.000
210.73	162.000
211.10	157.000
211.47	170.000
211.84	165.000
212.21	167.000
212.58	163.000
212.95	161.000
213.32	162.000
213.69	160.000
214.06	165.000
214.43	165.000
214.80	160.000
215.17	162.000
215.55	168.000
215.92	165.000
216.29	158.000
216.66	166.000
217.03	166.000
217.40	163.000
217.77	164.000
218.14	161.000
218.51	167.000
218.88	163.000
219.25	162.000
219.62	169.000
219.99	160.000
220.36	162.000
220.73	165.000
221.10	166.000
221.47	165.000
221.84	160.000
222.21	161.000
222.58	166.000
222.95	167.000
223.32	163.000
223.69	160.000
224.06	163.000
224.43	163.000
224.80	163.000
225.17	161.000
225.54	163.000
225.91	167.000
226.27	178.000
226.64	166.000
227.01	163.000
227.38	163.000
227.75	168.000
228.12	162.000
228.49	165.000
228.86	164.000
229.23	162.000
229.60	164.000
229.97	168.000
230.34	166.000
230.71	162.000
231.08	167.000
231.45	163.000
231.82	168.000
232.19	163.000
232.56	170.000
232.93	164.000
233.30	164.000
233.66	166.000
234.03	166.000
234.40	165.000
234.77	160.000
235.14	167.000
235.51	163.000
235.88	167.000
236.25	163.000
236.62	166.000
236.99	164.000
237.36	163.000
237.73	161.000
238.09	169.000
238.46	168.000
238.83	165.000
239.20	162.000
239.57	164.000
239.94	164.000
240.31	164.000
240.68	163.000
241.05	167.000
241.41	162.000
241.78	164.000
242.15	167.000
242.52	163.000
242.89	161.000
243.26	163.000
243.63	162.000
244.00	167.000
244.36	168.000
244.73	160.000
245.10	163.000
245.47	165.000
245.84	164.000
246.21	166.000
246.58	165.000
246.94	165.000
247.31	166.000
247.68	165.000
248.05	166.000
248.42	167.000
248.79	169.000
249.15	167.000
249.52	162.000
249.89	163.000
250.26	167.000
250.63	166.000
251.00	165.000
251.36	158.000
251.73	167.000
252.10	165.000
252.47	166.000
252.84	166.000
253.20	163.000
253.57	167.000
253.94	163.000
254.31	164.000
254.68	166.000
255.05	166.000
255.41	164.000
255.78	163.000
256.15	168.000
256.52	163.000
256.88	169.000
257.25	164.000
257.62	163.000
257.99	160.000
258.36	170.000
258.72	168.000
259.09	166.000
259.46	165.000
259.83	161.000
260.19	165.000
260.56	166.000
260.93	159.000
261.30	165.000
261.67	163.000
262.03	164.000
262.40	161.000
262.77	163.000
263.14	164.000
263.50	163.000
263.87	167.000
264.24	168.000
264.61	166.000
264.97	161.000
265.34	170.000
265.71	169.000
266.07	166.000
266.44	166.000
266.81	164.000
267.18	162.000
267.54	168.000
267.91	168.000
268.28	162.000
268.64	165.000
269.01	156.000
269.38	166.000
269.75	168.000
270.11	164.000
270.48	167.000
270.85	169.000
271.21	165.000
271.58	168.000
271.95	162.000
272.32	165.000
272.68	163.000
273.05	159.000
273.42	164.000
273.78	163.000
274.15	164.000
274.52	168.000
274.88	166.000
275.25	171.000
275.62	162.000
275.98	166.000
276.35	163.000
276.72	165.000
277.08	162.000
277.45	165.000
277.82	169.000
278.18	167.000
278.55	167.000
278.92	164.000
279.28	162.000
279.65	166.000
280.01	164.000
280.38	166.000
280.75	167.000
281.11	164.000
281.48	167.000
281.85	169.000
282.21	168.000
282.58	165.000
282.95	164.000
283.31	167.000
283.68	163.000
284.04	160.000
284.41	162.000
284.78	169.000
285.14	168.000
285.51	169.000
285.87	162.000
286.24	167.000
286.61	168.000
286.97	167.000
287.34	164.000
287.70	165.000
288.07	168.000
288.44	171.000
288.80	165.000
289.17	158.000
289.53	168.000
289.90	168.000
290.26	166.000
290.63	166.000
291.00	172.000
291.36	163.000
291.73	165.000
292.09	168.000
292.46	167.000
292.82	163.000
293.19	165.000
293.56	160.000
293.92	168.000
294.29	168.000
294.65	167.000
295.02	165.000
295.38	164.000
295.75	166.000
296.11	170.000
296.48	164.000
296.84	166.000
297.21	162.000
297.57	167.000
297.94	165.000
298.30	168.000
298.67	165.000
299.04	170.000
299.40	170.000
299.77	165.000
300.13	166.000
300.50	167.000
300.86	166.000
301.23	163.000
301.59	165.000
301.96	168.000
302.32	166.000
302.69	162.000
303.05	166.000
303.42	159.000
303.78	167.000
304.14	165.000
304.51	168.000
304.87	161.000
305.24	165.000
305.60	167.000
305.97	162.000
306.33	168.000
306.70	165.000
307.06	167.000
307.43	168.000
307.79	164.000
308.16	167.000
308.52	162.000
308.88	162.000
309.25	166.000
309.61	168.000
309.98	162.000
310.34	163.000
310.71	166.000
311.07	167.000
311.44	167.000
311.80	167.000
312.16	167.000
312.53	160.000
312.89	167.000
313.26	166.000
313.62	163.000
313.98	164.000
314.35	165.000
314.71	167.000
315.08	167.000
315.44	163.000
315.80	167.000
316.17	166.000
316.53	167.000
316.90	163.000
317.26	165.000
317.62	166.000
317.99	165.000
318.35	167.000
318.72	168.000
319.08	164.000
319.44	164.000
319.81	167.000
320.17	163.000
320.53	170.000
320.90	168.000
321.26	166.000
321.62	172.000
321.99	164.000
322.35	173.000
322.72	164.000
323.08	165.000
323.44	168.000
323.81	162.000
324.17	166.000
324.53	166.000
324.90	166.000
325.26	164.000
325.62	161.000
325.99	168.000
326.35	164.000
326.71	169.000
327.08	162.000
327.44	161.000
327.80	165.000
328.16	163.000
328.53	166.000
328.89	163.000
329.25	165.000
329.62	168.000
329.98	163.000
330.34	166.000
330.71	167.000
331.07	161.000
331.43	160.000
331.79	165.000
332.16	168.000
332.52	160.000
332.88	160.000
333.24	164.000
333.61	167.000
333.97	169.000
334.33	166.000
334.70	167.000
335.06	162.000
335.42	161.000
335.78	166.000
336.15	167.000
336.51	165.000
336.87	167.000
337.23	166.000
337.60	163.000
337.96	169.000
338.32	166.000
338.68	169.000
339.04	165.000
339.41	166.000
339.77	172.000
340.13	162.000
340.49	167.000
340.86	162.000
341.22	163.000
341.58	163.000
341.94	159.000
342.30	167.000
342.67	169.000
343.03	166.000
343.39	166.000
343.75	167.000
344.11	166.000
344.48	161.000
344.84	165.000
345.20	164.000
345.56	166.000
345.92	166.000
346.28	163.000
346.65	169.000
347.01	165.000
347.37	168.000
347.73	163.000
348.09	164.000
348.45	166.000
348.82	164.000
349.18	163.000
349.54	167.000
349.90	166.000
350.26	160.000
350.62	163.000
350.98	166.000
351.35	163.000
351.71	166.000
352.07	164.000
352.43	163.000
352.79	166.000
353.15	165.000
353.51	168.000
353.87	165.000
354.24	162.000
354.60	161.000
354.96	165.000
355.32	163.000
355.68	166.000
356.04	169.000
356.40	163.000
356.76	168.000
357.12	169.000
357.48	168.000
357.85	163.000
358.21	167.000
358.57	163.000
358.93	163.000
359.29	163.000
359.65	165.000
360.01	163.000
360.37	164.000
360.73	166.000
361.09	166.000
361.45	167.000
361.81	166.000
362.17	168.000
362.53	168.000
362.89	165.000
363.25	166.000
363.62	167.000
363.98	164.000
364.34	162.000
364.70	164.000
365.06	169.000
365.42	165.000
365.78	163.000
366.14	166.000
366.50	168.000
366.86	162.000
367.22	164.000
367.58	167.000
367.94	166.000
368.30	161.000
368.66	167.000
369.02	167.000
369.38	165.000
369.74	164.000
370.10	165.000
370.46	162.000
370.82	163.000
371.18	168.000
371.54	165.000
371.90	167.000
372.26	169.000
372.62	160.000
372.98	158.000
373.33	166.000
373.69	165.000
374.05	166.000
374.41	163.000
374.77	165.000
375.13	166.000
375.49	165.000
375.85	163.000
376.21	168.000
376.57	166.000
376.93	164.000
377.29	157.000
377.65	165.000
378.01	164.000
378.37	166.000
378.73	164.000
379.08	167.000
379.44	169.000
379.80	162.000
380.16	164.000
380.52	163.000
380.88	169.000
381.24	165.000
381.60	166.000
381.96	164.000
382.32	162.000
382.67	167.000
383.03	167.000
383.39	163.000
383.75	166.000
384.11	166.000
384.47	166.000
384.83	172.000
385.19	167.000
385.54	163.000
385.90	166.000
386.26	164.000
386.62	164.000
386.98	162.000
387.34	166.000
387.70	163.000
388.05	166.000
388.41	165.000
388.77	162.000
389.13	161.000
389.49	166.000
389.85	163.000
390.20	166.000
390.56	163.000
390.92	162.000
391.28	169.000
391.64	165.000
391.99	160.000
392.35	167.000
392.71	165.000
393.07	162.000
393.43	167.000
393.78	166.000
394.14	169.000
394.50	163.000
394.86	162.000
395.22	162.000
395.57	167.000
395.93	167.000
396.29	166.000
396.65	160.000
397.00	164.000
397.36	164.000
397.72	167.000
398.08	165.000
398.43	165.000
398.79	161.000
399.15	165.000
399.51	162.000
399.86	163.000
400.22	161.000
400.58	162.000
400.94	161.000
401.29	165.000
401.65	161.000
402.01	161.000
402.37	162.000
402.72	162.000
403.08	167.000
403.44	167.000
403.79	161.000
404.15	169.000
404.51	164.000
404.86	162.000
405.22	158.000
405.58	161.000
405.94	162.000
406.29	167.000
406.65	160.000
407.01	164.000
407.36	166.000
407.72	165.000
408.08	164.000
408.43	164.000
408.79	162.000
409.15	168.000
409.50	159.000
409.86	166.000
410.22	166.000
410.57	164.000
410.93	164.000
411.29	164.000
411.64	165.000
412.00	163.000
412.35	164.000
412.71	163.000
413.07	161.000
413.42	161.000
413.78	159.000
414.14	163.000
414.49	165.000
414.85	164.000
415.20	160.000
415.56	159.000
415.92	169.000
416.27	165.000
416.63	159.000
416.98	164.000
417.34	163.000
417.70	160.000
418.05	164.000
418.41	163.000
418.76	167.000
419.12	170.000
419.47	166.000
419.83	162.000
420.19	167.000
420.54	166.000
420.90	162.000
421.25	170.000
421.61	163.000
421.96	163.000
422.32	169.000
422.67	162.000
423.03	165.000
423.39	164.000
423.74	158.000
424.10	164.000
424.45	164.000
424.81	163.000
425.16	163.000
425.52	167.000
425.87	164.000
426.23	164.000
426.58	163.000
426.94	165.000
427.29	163.000
427.65	164.000
428.00	162.000
428.36	166.000
428.71	166.000
429.07	162.000
429.42	163.000
429.78	168.000
430.13	166.000
430.49	164.000
430.84	165.000
431.19	162.000
431.55	160.000
431.90	161.000
432.26	169.000
432.61	161.000
432.97	160.000
433.32	168.000
433.68	174.000
434.03	164.000
434.39	168.000
434.74	158.000
435.09	167.000
435.45	167.000
435.80	162.000
436.16	165.000
436.51	167.000
436.86	164.000
437.22	165.000
437.57	164.000
437.93	162.000
438.28	164.000
438.63	163.000
438.99	162.000
439.34	163.000
439.70	163.000
440.05	165.000
440.40	163.000
440.76	164.000
441.11	159.000
441.47	162.000
441.82	163.000
442.17	162.000
442.53	157.000
442.88	168.000
443.23	162.000
443.59	164.000
443.94	165.000
444.29	164.000
444.65	162.000
445.00	162.000
445.35	161.000
445.71	168.000
446.06	166.000
446.41	165.000
446.77	165.000
447.12	167.000
447.47	160.000
447.83	160.000
448.18	162.000
448.53	164.000
448.89	164.000
449.24	164.000
449.59	160.000
449.94	165.000
450.30	167.000
450.65	170.000
451.00	163.000
451.36	164.000
451.71	171.000
452.06	164.000
452.41	164.000
452.77	166.000
453.12	159.000
453.47	164.000
453.82	166.000
454.18	164.000
454.53	165.000
454.88	166.000
455.23	163.000
455.59	163.000
455.94	165.000
456.29	165.000
456.64	161.000
457.00	162.000
457.35	159.000
457.70	163.000
458.05	166.000
458.40	165.000
458.76	167.000
459.11	163.000
459.46	161.000
459.81	161.000
460.16	165.000
460.52	164.000
460.87	166.000
461.22	167.000
461.57	166.000
461.92	166.000
462.28	164.000
462.63	162.000
462.98	165.000
463.33	165.000
463.68	163.000
464.03	167.000
464.38	159.000
464.74	162.000
465.09	163.000
465.44	160.000
465.79	161.000
466.14	164.000
466.49	163.000
466.84	167.000
467.20	163.000
467.55	163.000
467.90	167.000
468.25	171.000
468.60	164.000
468.95	161.000
469.30	165.000
469.65	169.000
470.00	164.000
470.36	161.000
470.71	166.000
471.06	165.000
471.41	163.000
471.76	161.000
472.11	162.000
472.46	163.000
472.81	163.000
473.16	165.000
473.51	166.000
473.86	157.000
474.21	162.000
474.56	170.000
474.91	161.000
475.26	162.000
475.62	165.000
475.97	168.000
476.32	161.000
476.67	162.000
477.02	162.000
477.37	167.000
477.72	166.000
478.07	166.000
478.42	162.000
478.77	165.000
479.12	166.000
479.47	162.000
479.82	163.000
480.17	164.000
480.52	165.000
480.87	162.000
481.22	162.000
481.57	162.000
481.92	164.000
482.27	164.000
482.62	169.000
482.97	165.000
483.32	158.000
483.67	161.000
484.02	158.000
484.36	163.000
484.71	165.000
485.06	161.000
485.41	162.000
485.76	162.000
486.11	161.000
486.46	166.000
486.81	162.000
487.16	166.000
487.51	162.000
487.86	163.000
488.21	163.000
488.56	166.000
488.91	163.000
489.25	164.000
489.60	164.000
489.95	163.000
490.30	160.000
490.65	162.000
491.00	166.000
491.35	162.000
491.70	161.000
492.05	161.000
492.39	163.000
492.74	161.000
493.09	167.000
493.44	162.000
493.79	164.000
494.14	161.000
494.49	165.000
494.83	165.000
495.18	163.000
495.53	163.000
495.88	163.000
496.23	167.000
496.58	165.000
496.92	164.000
497.27	160.000
497.62	163.000
497.97	161.000
498.32	159.000
498.67	163.000
499.01	163.000
499.36	165.000
499.71	165.000
500.06	158.000
500.41	165.000
500.75	162.000
501.10	165.000
501.45	162.000
501.80	162.000
502.14	165.000
502.49	161.000
502.84	166.000
503.19	160.000
503.53	164.000
503.88	164.000
504.23	161.000
504.58	165.000
504.92	161.000
505.27	165.000
505.62	161.000
505.97	166.000
506.31	162.000
506.66	164.000
507.01	160.000
507.36	162.000
507.70	161.000
508.05	163.000
508.40	168.000
508.74	164.000
509.09	169.000
509.44	162.000
509.79	159.000
510.13	163.000
510.48	160.000
510.83	161.000
511.17	160.000
511.52	160.000
511.87	160.000
512.21	166.000
512.56	160.000
512.91	162.000
513.25	165.000
513.60	164.000
513.95	161.000
514.29	160.000
514.64	164.000
514.98	160.000
515.33	165.000
515.68	167.000
516.02	166.000
516.37	165.000
516.72	164.000
517.06	161.000
517.41	163.000
517.75	165.000
518.10	163.000
518.45	165.000
518.79	165.000
519.14	163.000
519.48	161.000
519.83	163.000
520.18	162.000
520.52	162.000
520.87	163.000
521.21	163.000
521.56	164.000
521.90	164.000
522.25	167.000
522.60	168.000
522.94	164.000
523.29	161.000
523.63	159.000
523.98	164.000
524.32	166.000
524.67	166.000
525.01	166.000
525.36	164.000
525.70	167.000
526.05	159.000
526.39	164.000
526.74	166.000
527.08	167.000
527.43	172.000
527.77	160.000
528.12	166.000
528.46	163.000
528.81	164.000
529.15	164.000
529.50	160.000
529.84	157.000
530.19	158.000
530.53	158.000
530.88	163.000
531.22	163.000
531.57	166.000
531.91	164.000
532.26	165.000
532.60	162.000
532.94	161.000
533.29	163.000
533.63	163.000
533.98	166.000
534.32	162.000
534.67	163.000
535.01	168.000
535.35	164.000
535.70	160.000
536.04	163.000
536.39	164.000
536.73	160.000
537.07	168.000
537.42	162.000
537.76	163.000
538.11	165.000
538.45	166.000
538.79	164.000
539.14	162.000
539.48	166.000
539.82	160.000
540.17	167.000
540.51	164.000
540.85	165.000
541.20	165.000
541.54	166.000
541.89	165.000
542.23	163.000
542.57	162.000
542.92	162.000
543.26	167.000
543.60	168.000
543.94	164.000
544.29	167.000
544.63	164.000
544.97	165.000
545.32	166.000
545.66	164.000
546.00	163.000
546.35	164.000
546.69	164.000
547.03	166.000
547.37	163.000
547.72	163.000
548.06	164.000
548.40	162.000
548.75	165.000
549.09	161.000
549.43	161.000
549.77	168.000
550.12	160.000
550.46	164.000
550.80	158.000
551.14	161.000
551.49	165.000
551.83	165.000
552.17	163.000
552.51	164.000
552.85	168.000
553.20	166.000
553.54	167.000
553.88	161.000
554.22	161.000
554.56	166.000
554.91	160.000
555.25	162.000
555.59	162.000
555.93	165.000
556.27	161.000
556.62	164.000
556.96	163.000
557.30	163.000
557.64	166.000
557.98	162.000
558.32	162.000
558.67	161.000
559.01	160.000
559.35	164.000
559.69	161.000
560.03	162.000
560.37	161.000
560.71	160.000
561.05	162.000
561.40	169.000
561.74	168.000
562.08	165.000
562.42	163.000
562.76	165.000
563.10	168.000
563.44	163.000
563.78	158.000
564.12	171.000
564.46	163.000
564.81	162.000
565.15	163.000
565.49	162.000
565.83	165.000
566.17	164.000
566.51	166.000
566.85	164.000
567.19	169.000
567.53	161.000
567.87	164.000
568.21	160.000
568.55	161.000
568.89	164.000
569.23	162.000
569.57	165.000
569.91	158.000
570.25	160.000
570.59	164.000
570.93	166.000
571.27	160.000
571.61	163.000
571.95	163.000
572.29	162.000
572.63	162.000
572.97	165.000
573.31	164.000
573.65	168.000
573.99	162.000
574.33	167.000
574.67	160.000
575.01	163.000
575.35	169.000
575.69	166.000
576.03	164.000
576.37	161.000
576.71	163.000
577.05	165.000
577.39	165.000
577.73	161.000
578.06	167.000
578.40	166.000
578.74	164.000
579.08	161.000
579.42	164.000
579.76	168.000
580.10	161.000
580.44	163.000
580.78	161.000
581.12	168.000
581.45	162.000
581.79	163.000
582.13	167.000
582.47	162.000
582.81	163.000
583.15	163.000
583.49	166.000
583.83	165.000
584.16	167.000
584.50	162.000
584.84	165.000
585.18	160.000
585.52	162.000
585.86	159.000
586.19	168.000
586.53	164.000
586.87	166.000
587.21	167.000
587.55	166.000
587.88	166.000
588.22	163.000
588.56	166.000
588.90	162.000
589.24	160.000
589.57	165.000
589.91	164.000
590.25	164.000
590.59	163.000
590.92	162.000
591.26	157.000
591.60	165.000
591.94	159.000
592.27	165.000
592.61	161.000
592.95	165.000
593.29	160.000
593.62	163.000
593.96	167.000
594.30	160.000
594.64	164.000
594.97	164.000
595.31	163.000
595.65	164.000
595.98	162.000
596.32	163.000
596.66	164.000
597.00	163.000
597.33	165.000
597.67	160.000
598.01	163.000
598.34	166.000
598.68	169.000
599.02	165.000
599.35	166.000
599.69	164.000
600.03	163.000
600.36	162.000
600.70	163.000
601.03	159.000
601.37	166.000
601.71	166.000
602.04	161.000
602.38	160.000
602.72	160.000
603.05	164.000
603.39	162.000
603.72	168.000
604.06	158.000
604.40	164.000
604.73	160.000
605.07	163.000
605.40	163.000
605.74	163.000
606.08	161.000
606.41	163.000
606.75	169.000
607.08	161.000
607.42	169.000
607.75	160.000
608.09	166.000
608.42	158.000
608.76	164.000
609.10	161.000
609.43	163.000
609.77	162.000
610.10	160.000
610.44	167.000
610.77	166.000
611.11	165.000
611.44	160.000
611.78	165.000
612.11	165.000
612.45	160.000
612.78	162.000
613.12	163.000
613.45	167.000
613.79	165.000
614.12	164.000
614.46	161.000
614.79	163.000
