SpectraSuite Data File
++++++++++++++++++++++++++++++++++++
Date: Tue Apr 07 18:37:00 BST 2015
User: mpfc3
Dark Spectrum Present: Yes
Reference Spectrum Present: Yes
Number of Sampled Component Spectra: 1
Spectrometers: USB2E3636
Integration Time (usec): 30000 (USB2E3636)
Spectra Averaged: 100 (USB2E3636)
Boxcar Smoothing: 0 (USB2E3636)
Correct for Electrical Dark: No (USB2E3636)
Strobe/Lamp Enabled: No (USB2E3636)
Correct for Detector Non-linearity: No (USB2E3636)
Correct for Stray Light: No (USB2E3636)
Number of Pixels in Processed Spectrum: 2048
>>>>>Begin Processed Spectral Data<<<<<
180.28	0.000
180.65	1794.595
181.02	1007.463
181.39	748.421
181.77	715.842
182.14	1038.333
182.51	2275.862
182.88	880.822
183.25	1332.692
183.63	1073.214
184.00	876.543
184.37	1424.444
184.74	1675.676
185.11	2433.333
185.49	745.882
185.86	880.000
186.23	1223.214
186.60	1213.333
186.97	624.771
187.35	1545.238
187.72	501.538
188.09	853.333
188.46	1851.429
188.83	541.935
189.20	-200.000
189.58	-31.412
189.95	-27.698
190.32	-27.216
190.69	-21.575
191.06	-33.176
191.43	-27.486
191.81	-24.665
192.18	-26.774
192.55	-28.818
192.92	-27.793
193.29	-25.823
193.66	-26.576
194.03	-24.103
194.41	-27.186
194.78	-28.968
195.15	-25.465
195.52	-29.748
195.89	-26.050
196.26	-24.615
196.63	-25.855
197.01	-24.480
197.38	-25.560
197.75	-29.375
198.12	-26.065
198.49	-28.411
198.86	-24.462
199.23	-27.167
199.60	-29.606
199.98	-26.390
200.35	-22.732
200.72	-29.503
201.09	-27.790
201.46	-31.429
201.83	-25.619
202.20	-32.207
202.57	-28.547
202.94	-32.355
203.31	-30.389
203.69	-29.226
204.06	-28.496
204.43	-33.214
204.80	-26.077
205.17	-26.218
205.54	-30.998
205.91	-29.569
206.28	-29.342
206.65	-25.260
207.02	-29.157
207.39	-30.712
207.76	-29.796
208.14	-27.324
208.51	-27.257
208.88	-26.572
209.25	-27.343
209.62	-30.701
209.99	-24.912
210.36	-29.853
210.73	-30.197
211.10	-31.799
211.47	-30.929
211.84	-30.792
212.21	-28.519
212.58	-30.601
212.95	-30.142
213.32	-30.902
213.69	-30.850
214.06	-30.268
214.43	-33.103
214.80	-28.788
215.17	-32.850
215.55	-27.485
215.92	-27.791
216.29	-30.533
216.66	-31.416
217.03	-29.869
217.40	-35.343
217.77	-31.058
218.14	-30.416
218.51	-32.500
218.88	-33.375
219.25	-26.082
219.62	-28.590
219.99	-29.511
220.36	-37.363
220.73	-29.267
221.10	-34.079
221.47	-32.226
221.84	-32.115
222.21	-26.989
222.58	-35.590
222.95	-34.187
223.32	-34.313
223.69	-35.137
224.06	-37.321
224.43	-33.693
224.80	-38.714
225.17	-35.630
225.54	-35.357
225.91	-31.748
226.27	-17.209
226.64	-32.900
227.01	-33.424
227.38	-37.562
227.75	-31.586
228.12	-40.691
228.49	-32.409
228.86	-39.343
229.23	-33.449
229.60	-33.937
229.97	-35.436
230.34	-35.436
230.71	-35.149
231.08	-40.510
231.45	-32.278
231.82	-35.899
232.19	-37.414
232.56	-38.608
232.93	-40.618
233.30	-34.471
233.66	-39.296
234.03	-33.868
234.40	-37.941
234.77	-27.642
235.14	-38.971
235.51	-37.641
235.88	-38.712
236.25	-39.859
236.62	-40.878
236.99	-35.371
237.36	-34.801
237.73	-36.298
238.09	-36.011
238.46	-36.412
238.83	-42.346
239.20	-33.883
239.57	-36.133
239.94	-36.929
240.31	-37.013
240.68	-37.896
241.05	-39.778
241.41	-37.196
241.78	-40.145
242.15	-38.301
242.52	-37.418
242.89	-39.832
243.26	-36.871
243.63	-35.802
244.00	-40.496
244.36	-34.705
244.73	-38.275
245.10	-43.126
245.47	-38.554
245.84	-39.191
246.21	-44.855
246.58	-41.746
246.94	-38.332
247.31	-39.483
247.68	-41.972
248.05	-42.574
248.42	-36.003
248.79	-35.477
249.15	-40.536
249.52	-36.576
249.89	-44.436
250.26	-39.263
250.63	-44.328
251.00	-41.680
251.36	-45.000
251.73	-43.285
252.10	-38.356
252.47	-41.558
252.84	-45.844
253.20	-48.206
253.57	-42.672
253.94	-38.602
254.31	-45.222
254.68	-41.907
255.05	-39.938
255.41	-50.463
255.78	-39.687
256.15	-44.186
256.52	-39.665
256.88	-50.304
257.25	-39.511
257.62	-47.918
257.99	-45.554
258.36	-48.273
258.72	-44.319
259.09	-44.113
259.46	-37.717
259.83	-42.249
260.19	-42.869
260.56	-40.950
260.93	-46.504
261.30	-46.591
261.67	-50.258
262.03	-46.204
262.40	-38.386
262.77	-39.048
263.14	-41.811
263.50	-42.821
263.87	-40.239
264.24	-44.819
264.61	-48.518
264.97	-41.795
265.34	-41.949
265.71	-44.406
266.07	-38.782
266.44	-42.028
266.81	-40.443
267.18	-40.902
267.54	-39.934
267.91	-38.265
268.28	-37.706
268.64	-39.840
269.01	-36.045
269.38	-42.942
269.75	-43.522
270.11	-33.411
270.48	-42.729
270.85	-40.017
271.21	-41.243
271.58	-49.775
271.95	-42.810
272.32	-36.667
272.68	-45.238
273.05	-41.436
273.42	-49.025
273.78	-44.034
274.15	-39.372
274.52	-46.331
274.88	-45.354
275.25	-50.222
275.62	-47.792
275.98	-39.212
276.35	-37.176
276.72	-51.187
277.08	-41.928
277.45	-40.917
277.82	-42.389
278.18	-46.280
278.55	-41.463
278.92	-50.844
279.28	-44.206
279.65	-35.099
280.01	-47.895
280.38	-40.442
280.75	-41.538
281.11	-49.740
281.48	-38.204
281.85	-43.766
282.21	-45.283
282.58	-38.782
282.95	-35.116
283.31	-48.120
283.68	-42.266
284.04	-42.154
284.41	-46.046
284.78	-40.709
285.14	-43.500
285.51	-46.047
285.87	-43.612
286.24	-41.414
286.61	-55.376
286.97	-46.673
287.34	-43.730
287.70	-40.100
288.07	-41.495
288.44	-40.577
288.80	-43.640
289.17	-41.716
289.53	-53.292
289.90	-43.095
290.26	-48.906
290.63	-39.967
291.00	-40.474
291.36	-41.872
291.73	-44.621
292.09	-42.966
292.46	-37.500
292.82	-43.709
293.19	-51.228
293.56	-39.801
293.92	-42.097
294.29	-49.132
294.65	-41.011
295.02	-43.847
295.38	-40.669
295.75	-40.238
296.11	-46.701
296.48	-42.892
296.84	-38.983
297.21	-46.422
297.57	-49.077
297.94	-44.003
298.30	-33.971
298.67	-43.266
299.04	-46.810
299.40	-42.918
299.77	-40.738
300.13	-38.594
300.50	-40.744
300.86	-38.325
301.23	-38.863
301.59	-44.668
301.96	-46.440
302.32	-37.626
302.69	-36.741
303.05	-46.102
303.42	-45.478
303.78	-42.171
304.14	-39.069
304.51	-47.094
304.87	-44.079
305.24	-34.268
305.60	-40.865
305.97	-34.729
306.33	-47.603
306.70	-48.083
307.06	-40.940
307.43	-33.106
307.79	-38.303
308.16	-31.424
308.52	-44.247
308.88	-43.230
309.25	-36.242
309.61	-38.298
309.98	-39.074
310.34	-35.748
310.71	-43.854
311.07	-38.132
311.44	-43.980
311.80	-40.784
312.16	-39.818
312.53	-37.453
312.89	-34.438
313.26	-37.634
313.62	-35.482
313.98	-39.786
314.35	-36.594
314.71	-30.429
315.08	-38.350
315.44	-36.176
315.80	-32.613
316.17	-39.098
316.53	-30.878
316.90	-36.429
317.26	-37.766
317.62	-41.320
317.99	-34.780
318.35	-37.310
318.72	-37.430
319.08	-31.020
319.44	-30.318
319.81	-31.186
320.17	-28.822
320.53	-31.039
320.90	-30.572
321.26	-34.274
321.62	-33.749
321.99	-33.072
322.35	-31.610
322.72	-25.620
323.08	-30.144
323.44	-29.653
323.81	-31.080
324.17	-29.329
324.53	-31.530
324.90	-32.013
325.26	-26.252
325.62	-27.556
325.99	-34.673
326.35	-25.791
326.71	-25.726
327.08	-28.961
327.44	-25.321
327.80	-26.097
328.16	-25.820
328.53	-27.262
328.89	-32.007
329.25	-28.159
329.62	-21.753
329.98	-23.418
330.34	-21.904
330.71	-21.695
331.07	-26.259
331.43	-24.713
331.79	-21.333
332.16	-22.537
332.52	-21.926
332.88	-20.800
333.24	-18.401
333.61	-21.891
333.97	-18.639
334.33	-19.539
334.70	-21.156
335.06	-17.401
335.42	-20.927
335.78	-19.369
336.15	-20.773
336.51	-16.086
336.87	-19.732
337.23	-18.013
337.60	-17.847
337.96	-17.045
338.32	-17.751
338.68	-14.323
339.04	-16.382
339.41	-15.180
339.77	-17.144
340.13	-16.728
340.49	-16.324
340.86	-14.444
341.22	-14.902
341.58	-12.282
341.94	-16.187
342.30	-16.003
342.67	-14.490
343.03	-14.013
343.39	-13.413
343.75	-17.100
344.11	-11.261
344.48	-16.892
344.84	-13.195
345.20	-12.557
345.56	-12.998
345.92	-13.188
346.28	-11.407
346.65	-11.495
347.01	-12.136
347.37	-13.581
347.73	-13.166
348.09	-13.454
348.45	-10.425
348.82	-11.365
349.18	-10.917
349.54	-11.039
349.90	-12.136
350.26	-11.389
350.62	-8.942
350.98	-10.330
351.35	-10.715
351.71	-10.372
352.07	-9.681
352.43	-10.918
352.79	-10.786
353.15	-9.434
353.51	-9.922
353.87	-8.121
354.24	-8.615
354.60	-9.820
354.96	-8.675
355.32	-10.215
355.68	-8.724
356.04	-7.828
356.40	-8.421
356.76	-7.194
357.12	-8.550
357.48	-7.701
357.85	-8.127
358.21	-7.667
358.57	-8.175
358.93	-7.238
359.29	-6.871
359.65	-8.038
360.01	-7.983
360.37	-6.376
360.73	-7.217
361.09	-7.233
361.45	-7.725
361.81	-6.097
362.17	-6.039
362.53	-5.769
362.89	-6.113
363.25	-5.958
363.62	-6.018
363.98	-5.972
364.34	-7.307
364.70	-4.252
365.06	-5.955
365.42	-5.335
365.78	-5.520
366.14	-5.501
366.50	-4.392
366.86	-5.858
367.22	-4.459
367.58	-5.917
367.94	-4.790
368.30	-4.759
368.66	-5.505
369.02	-4.430
369.38	-3.820
369.74	-3.677
370.10	-4.728
370.46	-4.237
370.82	-4.597
371.18	-3.472
371.54	-3.379
371.90	-3.539
372.26	-3.797
372.62	-3.799
372.98	-4.302
373.33	-3.584
373.69	-3.463
374.05	-2.946
374.41	-4.103
374.77	-3.061
375.13	-3.643
375.49	-3.520
375.85	-3.118
376.21	-2.845
376.57	-3.321
376.93	-3.188
377.29	-2.298
377.65	-2.151
378.01	-2.635
378.37	-2.482
378.73	-2.457
379.08	-2.897
379.44	-2.181
379.80	-1.759
380.16	-1.947
380.52	-1.823
380.88	-1.490
381.24	-1.432
381.60	-1.582
381.96	-0.737
382.32	-1.087
382.67	-0.551
383.03	-0.856
383.39	-0.272
383.75	-1.109
384.11	-0.278
384.47	-0.208
384.83	-0.247
385.19	-0.200
385.54	-0.383
385.90	-0.039
386.26	0.286
386.62	0.509
386.98	0.765
387.34	0.711
387.70	0.685
388.05	1.272
388.41	1.188
388.77	0.849
389.13	1.100
389.49	1.172
389.85	1.431
390.20	1.411
390.56	1.587
390.92	1.896
391.28	2.095
391.64	2.271
391.99	2.604
392.35	2.704
392.71	2.293
393.07	2.966
393.43	2.661
393.78	2.999
394.14	3.505
394.50	3.481
394.86	3.739
395.22	3.706
395.57	3.726
395.93	3.796
396.29	4.232
396.65	4.113
397.00	4.733
397.36	4.544
397.72	4.712
398.08	5.198
398.43	4.833
398.79	5.262
399.15	5.225
399.51	5.598
399.86	5.000
400.22	5.477
400.58	5.543
400.94	5.942
401.29	6.320
401.65	6.566
402.01	6.485
402.37	6.074
402.72	6.879
403.08	6.956
403.44	6.794
403.79	7.137
404.15	7.194
404.51	7.420
404.86	7.786
405.22	7.535
405.58	7.674
405.94	7.817
406.29	8.118
406.65	7.975
407.01	8.606
407.36	8.515
407.72	8.727
408.08	8.660
408.43	8.677
408.79	8.842
409.15	9.416
409.50	9.825
409.86	9.172
410.22	9.848
410.57	9.826
410.93	9.798
411.29	10.259
411.64	10.270
412.00	10.415
412.35	10.455
412.71	10.638
413.07	10.751
413.42	10.759
413.78	11.221
414.14	11.317
414.49	11.250
414.85	11.263
415.20	11.828
415.56	11.674
415.92	11.951
416.27	11.942
416.63	12.470
416.98	12.151
417.34	12.486
417.70	12.676
418.05	12.615
418.41	12.662
418.76	13.138
419.12	12.983
419.47	13.267
419.83	13.606
420.19	13.221
420.54	13.631
420.90	13.421
421.25	13.794
421.61	13.933
421.96	14.038
422.32	14.130
422.67	14.373
423.03	14.078
423.39	14.476
423.74	14.558
424.10	14.761
424.45	14.906
424.81	14.979
425.16	14.878
425.52	15.305
425.87	15.399
426.23	15.539
426.58	15.643
426.94	15.688
427.29	15.874
427.65	16.003
428.00	16.074
428.36	16.187
428.71	16.353
429.07	16.538
429.42	16.644
429.78	16.725
430.13	16.845
430.49	17.026
430.84	17.017
431.19	17.129
431.55	17.264
431.90	17.341
432.26	17.419
432.61	17.936
432.97	17.590
433.32	17.815
433.68	17.766
434.03	17.978
434.39	18.099
434.74	18.244
435.09	18.418
435.45	18.324
435.80	18.479
436.16	18.610
436.51	18.706
436.86	18.841
437.22	18.848
437.57	19.012
437.93	19.163
438.28	19.108
438.63	19.332
438.99	19.536
439.34	19.566
439.70	19.673
440.05	19.898
440.40	19.886
440.76	19.815
441.11	20.018
441.47	20.110
441.82	20.175
442.17	20.248
442.53	20.252
442.88	20.294
443.23	20.457
443.59	20.464
443.94	20.764
444.29	20.792
444.65	20.839
445.00	20.963
445.35	21.129
445.71	21.106
446.06	21.330
446.41	21.305
446.77	21.465
447.12	21.485
447.47	21.580
447.83	21.666
448.18	21.596
448.53	21.809
448.89	21.977
449.24	21.987
449.59	22.003
449.94	22.192
450.30	22.275
450.65	22.368
451.00	22.542
451.36	22.578
451.71	22.667
452.06	22.753
452.41	22.719
452.77	22.891
453.12	23.022
453.47	23.033
453.82	23.189
454.18	23.145
454.53	23.277
454.88	23.445
455.23	23.449
455.59	23.682
455.94	23.648
456.29	23.789
456.64	23.771
457.00	23.935
457.35	24.043
457.70	24.031
458.05	24.323
458.40	24.390
458.76	24.405
459.11	24.419
459.46	24.455
459.81	24.452
460.16	24.497
460.52	24.828
460.87	24.923
461.22	24.849
461.57	25.013
461.92	25.139
462.28	25.033
462.63	25.370
462.98	25.339
463.33	25.512
463.68	25.467
464.03	25.451
464.38	25.550
464.74	25.788
465.09	25.888
465.44	25.971
465.79	25.998
466.14	26.019
466.49	26.035
466.84	26.143
467.20	26.226
467.55	26.300
467.90	26.318
468.25	26.189
468.60	26.554
468.95	26.440
469.30	26.579
469.65	26.628
470.00	26.726
470.36	26.737
470.71	26.794
471.06	26.820
471.41	26.849
471.76	26.911
472.11	26.882
472.46	26.879
472.81	27.042
473.16	26.986
473.51	26.996
473.86	27.035
474.21	27.173
474.56	27.164
474.91	27.061
475.26	27.129
475.62	27.084
475.97	27.167
476.32	27.212
476.67	27.209
477.02	27.137
477.37	27.088
477.72	27.228
478.07	27.225
478.42	27.285
478.77	27.218
479.12	27.232
479.47	27.187
479.82	27.236
480.17	27.282
480.52	27.171
480.87	27.234
481.22	27.198
481.57	27.225
481.92	27.120
482.27	27.141
482.62	27.049
482.97	27.165
483.32	27.156
483.67	27.115
484.02	27.113
484.36	27.242
484.71	27.197
485.06	27.206
485.41	27.209
485.76	27.306
486.11	27.271
486.46	27.275
486.81	27.284
487.16	27.329
487.51	27.451
487.86	27.488
488.21	27.474
488.56	27.449
488.91	27.617
489.25	27.672
489.60	27.776
489.95	27.740
490.30	27.818
490.65	27.902
491.00	27.960
491.35	27.919
491.70	28.104
492.05	28.161
492.39	28.275
492.74	28.349
493.09	28.446
493.44	28.444
493.79	28.548
494.14	28.649
494.49	28.704
494.83	28.786
495.18	28.822
495.53	28.899
495.88	29.022
496.23	29.070
496.58	29.186
496.92	29.260
497.27	29.391
497.62	29.467
497.97	29.453
498.32	29.535
498.67	29.673
499.01	29.755
499.36	29.773
499.71	29.846
500.06	29.934
500.41	30.044
500.75	30.046
501.10	30.195
501.45	30.204
501.80	30.247
502.14	30.274
502.49	30.469
502.84	30.494
503.19	30.523
503.53	30.531
503.88	30.689
504.23	30.713
504.58	30.827
504.92	30.766
505.27	30.862
505.62	30.905
505.97	30.901
506.31	30.955
506.66	30.977
507.01	31.026
507.36	31.047
507.70	31.032
508.05	30.996
508.40	31.075
508.74	31.091
509.09	31.059
509.44	31.073
509.79	31.041
510.13	31.009
510.48	31.003
510.83	30.979
511.17	31.043
511.52	30.974
511.87	30.899
512.21	30.888
512.56	30.997
512.91	30.983
513.25	31.002
513.60	31.104
513.95	31.088
514.29	31.176
514.64	31.257
514.98	31.256
515.33	31.331
515.68	31.395
516.02	31.410
516.37	31.386
516.72	31.457
517.06	31.563
517.41	31.480
517.75	31.582
518.10	31.735
518.45	31.637
518.79	31.742
519.14	31.699
519.48	31.795
519.83	31.806
520.18	31.855
520.52	31.875
520.87	31.890
521.21	31.935
521.56	32.001
521.90	31.990
522.25	31.947
522.60	31.964
522.94	31.996
523.29	32.062
523.63	31.989
523.98	31.965
524.32	32.056
524.67	32.064
525.01	31.985
525.36	31.956
525.70	31.955
526.05	31.954
526.39	31.917
526.74	31.858
527.08	31.865
527.43	31.726
527.77	31.698
528.12	31.682
528.46	31.632
528.81	31.569
529.15	31.523
529.50	31.418
529.84	31.274
530.19	31.297
530.53	31.162
530.88	31.003
531.22	30.926
531.57	30.824
531.91	30.663
532.26	30.547
532.60	30.394
532.94	30.262
533.29	30.170
533.63	29.961
533.98	29.741
534.32	29.658
534.67	29.449
535.01	29.165
535.35	29.016
535.70	28.772
536.04	28.642
536.39	28.465
536.73	28.221
537.07	27.995
537.42	27.781
537.76	27.497
538.11	27.367
538.45	27.158
538.79	26.921
539.14	26.789
539.48	26.539
539.82	26.390
540.17	26.210
540.51	25.940
540.85	25.775
541.20	25.627
541.54	25.441
541.89	25.311
542.23	25.162
542.57	25.032
542.92	25.017
543.26	24.812
543.60	24.695
543.94	24.722
544.29	24.577
544.63	24.639
544.97	24.532
545.32	24.473
545.66	24.487
546.00	24.450
546.35	24.439
546.69	24.467
547.03	24.522
547.37	24.524
547.72	24.586
548.06	24.648
548.40	24.718
548.75	24.812
549.09	24.770
549.43	24.938
549.77	24.985
550.12	25.113
550.46	25.202
550.80	25.318
551.14	25.445
551.49	25.523
551.83	25.730
552.17	25.924
552.51	26.008
552.85	26.166
553.20	26.347
553.54	26.543
553.88	26.730
554.22	26.924
554.56	27.166
554.91	27.445
555.25	27.717
555.59	27.884
555.93	28.180
556.27	28.440
556.62	28.675
556.96	28.991
557.30	29.201
557.64	29.501
557.98	29.715
558.32	30.034
558.67	30.295
559.01	30.584
559.35	30.864
559.69	31.133
560.03	31.353
560.37	31.657
560.71	31.948
561.05	32.187
561.40	32.394
561.74	32.712
562.08	32.882
562.42	33.159
562.76	33.386
563.10	33.592
563.44	33.804
563.78	33.951
564.12	34.111
564.46	34.357
564.81	34.487
565.15	34.689
565.49	34.767
565.83	34.924
566.17	35.050
566.51	35.120
566.85	35.261
567.19	35.339
567.53	35.423
567.87	35.532
568.21	35.636
568.55	35.594
568.89	35.630
569.23	35.629
569.57	35.743
569.91	35.724
570.25	35.726
570.59	35.694
570.93	35.756
571.27	35.683
571.61	35.605
571.95	35.607
572.29	35.607
572.63	35.496
572.97	35.415
573.31	35.343
573.65	35.213
573.99	35.159
574.33	35.060
574.67	34.975
575.01	34.857
575.35	34.759
575.69	34.693
576.03	34.567
576.37	34.420
576.71	34.278
577.05	34.159
577.39	34.013
577.73	33.757
578.06	33.667
578.40	33.470
578.74	33.379
579.08	33.147
579.42	33.025
579.76	32.752
580.10	32.525
580.44	32.405
580.78	32.141
581.12	31.957
581.45	31.682
581.79	31.540
582.13	31.354
582.47	31.139
582.81	30.913
583.15	30.826
583.49	30.577
583.83	30.428
584.16	30.272
584.50	30.038
584.84	29.959
585.18	29.827
585.52	29.590
585.86	29.450
586.19	29.255
586.53	29.158
586.87	29.075
587.21	28.845
587.55	28.634
587.88	28.514
588.22	28.387
588.56	28.113
588.90	27.905
589.24	27.742
589.57	27.520
589.91	27.337
590.25	27.094
590.59	26.857
590.92	26.618
591.26	26.384
591.60	26.203
591.94	25.960
592.27	25.644
592.61	25.372
592.95	25.067
593.29	24.805
593.62	24.486
593.96	24.195
594.30	23.841
594.64	23.522
594.97	23.179
595.31	22.733
595.65	22.374
595.98	21.950
596.32	21.497
596.66	21.085
597.00	20.603
597.33	20.131
597.67	19.657
598.01	19.121
598.34	18.681
598.68	18.196
599.02	17.746
599.35	17.297
599.69	16.816
600.03	16.379
600.36	16.022
600.70	15.652
601.03	15.261
601.37	14.949
601.71	14.631
602.04	14.287
602.38	13.997
602.72	13.693
603.05	13.391
603.39	13.117
603.72	12.825
604.06	12.531
604.40	12.312
604.73	11.948
605.07	11.628
605.40	11.306
605.74	11.014
606.08	10.707
606.41	10.411
606.75	10.114
607.08	9.815
607.42	9.501
607.75	9.200
608.09	8.868
608.42	8.555
608.76	8.307
609.10	7.983
609.43	7.639
609.77	7.395
610.10	7.087
610.44	6.798
610.77	6.503
611.11	6.248
611.44	5.982
611.78	5.697
612.11	5.447
612.45	5.213
612.78	4.966
613.12	4.721
613.45	4.531
613.79	4.268
614.12	4.087
614.46	3.893
614.79	3.709
615.13	3.519
615.46	3.378
615.79	3.202
616.13	3.071
616.46	2.943
616.80	2.789
617.13	2.689
617.47	2.578
617.80	2.471
618.13	2.341
618.47	2.265
618.80	2.166
619.14	2.097
619.47	2.028
619.81	1.972
620.14	1.913
620.47	1.826
620.81	1.764
621.14	1.711
621.47	1.652
621.81	1.602
622.14	1.556
622.48	1.520
622.81	1.477
623.14	1.444
623.48	1.384
623.81	1.358
624.14	1.336
624.48	1.307
624.81	1.266
625.14	1.252
625.48	1.236
625.81	1.215
626.14	1.196
626.48	1.176
626.81	1.191
627.14	1.193
627.48	1.200
627.81	1.212
628.14	1.250
628.47	1.239
628.81	1.267
629.14	1.303
629.47	1.343
629.81	1.346
630.14	1.415
630.47	1.443
