SpectraSuite Data File
++++++++++++++++++++++++++++++++++++
Date: Tue Apr 07 18:47:58 BST 2015
User: mpfc3
Dark Spectrum Present: Yes
Reference Spectrum Present: Yes
Number of Sampled Component Spectra: 1
Spectrometers: USB2E3636
Integration Time (usec): 30000 (USB2E3636)
Spectra Averaged: 100 (USB2E3636)
Boxcar Smoothing: 0 (USB2E3636)
Correct for Electrical Dark: No (USB2E3636)
Strobe/Lamp Enabled: No (USB2E3636)
Correct for Detector Non-linearity: No (USB2E3636)
Correct for Stray Light: No (USB2E3636)
Number of Pixels in Processed Spectrum: 2048
>>>>>Begin Processed Spectral Data<<<<<
180.28	0.000
180.65	1983.784
181.02	1080.597
181.39	803.158
181.77	798.020
182.14	1146.667
182.51	2434.483
182.88	1053.425
183.25	1417.308
183.63	1292.857
184.00	933.333
184.37	1617.778
184.74	1835.135
185.11	2707.407
185.49	828.235
185.86	950.667
186.23	1321.429
186.60	1311.667
186.97	699.083
187.35	1864.286
187.72	616.154
188.09	966.667
188.46	2037.143
188.83	551.613
189.20	-224.545
189.58	-30.847
189.95	-29.736
190.32	-33.766
190.69	-27.131
191.06	-33.353
191.43	-30.229
191.81	-27.399
192.18	-29.823
192.55	-31.527
192.92	-32.185
193.29	-30.988
193.66	-33.106
194.03	-28.251
194.41	-31.980
194.78	-32.993
195.15	-29.972
195.52	-36.384
195.89	-33.258
196.26	-30.011
196.63	-32.417
197.01	-32.530
197.38	-31.294
197.75	-37.464
198.12	-31.895
198.49	-29.478
198.86	-30.294
199.23	-27.499
199.60	-34.009
199.98	-32.709
200.35	-27.323
200.72	-36.721
201.09	-28.683
201.46	-37.257
201.83	-33.277
202.20	-34.828
202.57	-35.325
202.94	-35.643
203.31	-35.159
203.69	-37.560
204.06	-33.982
204.43	-34.462
204.80	-31.591
205.17	-31.903
205.54	-36.520
205.91	-34.226
206.28	-31.328
206.65	-32.081
207.02	-33.891
207.39	-31.515
207.76	-35.851
208.14	-30.215
208.51	-35.003
208.88	-32.859
209.25	-34.757
209.62	-34.382
209.99	-31.946
210.36	-37.162
210.73	-31.805
211.10	-37.432
211.47	-37.469
211.84	-31.633
212.21	-35.309
212.58	-39.675
212.95	-32.742
213.32	-35.167
213.69	-33.830
214.06	-38.855
214.43	-39.711
214.80	-33.879
215.17	-36.255
215.55	-36.135
215.92	-30.879
216.29	-39.178
216.66	-36.178
217.03	-37.337
217.40	-42.399
217.77	-35.629
218.14	-35.076
218.51	-36.500
218.88	-32.618
219.25	-29.481
219.62	-36.731
219.99	-34.085
220.36	-40.789
220.73	-37.231
221.10	-36.842
221.47	-38.671
221.84	-38.446
222.21	-32.845
222.58	-39.879
222.95	-39.380
223.32	-41.558
223.69	-41.199
224.06	-42.720
224.43	-39.433
224.80	-38.982
225.17	-44.746
225.54	-38.959
225.91	-39.250
226.27	-22.458
226.64	-41.176
227.01	-42.565
227.38	-41.649
227.75	-38.530
228.12	-43.371
228.49	-39.175
228.86	-43.117
229.23	-40.928
229.60	-39.582
229.97	-44.437
230.34	-46.846
230.71	-40.736
231.08	-42.564
231.45	-41.173
231.82	-42.897
232.19	-40.249
232.56	-49.084
232.93	-48.095
233.30	-41.783
233.66	-48.802
234.03	-41.951
234.40	-41.541
234.77	-41.288
235.14	-42.721
235.51	-44.774
235.88	-42.109
236.25	-44.085
236.62	-49.735
236.99	-45.197
237.36	-44.815
237.73	-43.472
238.09	-39.024
238.46	-45.874
238.83	-49.200
239.20	-41.904
239.57	-39.899
239.94	-43.429
240.31	-45.327
240.68	-43.267
241.05	-45.259
241.41	-40.295
241.78	-43.127
242.15	-44.113
242.52	-42.132
242.89	-46.177
243.26	-47.715
243.63	-42.748
244.00	-45.004
244.36	-43.007
244.73	-45.991
245.10	-46.976
245.47	-48.268
245.84	-48.445
246.21	-44.619
246.58	-51.508
246.94	-46.213
247.31	-39.852
247.68	-47.783
248.05	-45.773
248.42	-43.935
248.79	-40.503
249.15	-45.287
249.52	-46.226
249.89	-45.390
250.26	-46.787
250.63	-50.121
251.00	-50.156
251.36	-51.639
251.73	-52.913
252.10	-46.898
252.47	-48.782
252.84	-51.111
253.20	-51.631
253.57	-51.336
253.94	-44.225
254.31	-50.577
254.68	-48.798
255.05	-45.588
255.41	-51.390
255.78	-46.953
256.15	-47.474
256.52	-49.401
256.88	-56.212
257.25	-48.344
257.62	-53.951
257.99	-52.601
258.36	-52.064
258.72	-48.751
259.09	-57.258
259.46	-47.717
259.83	-46.747
260.19	-50.524
260.56	-49.877
260.93	-51.474
261.30	-48.782
261.67	-58.419
262.03	-48.327
262.40	-47.858
262.77	-48.975
263.14	-49.959
263.50	-47.997
263.87	-45.339
264.24	-53.580
264.61	-56.901
264.97	-49.636
265.34	-47.316
265.71	-46.329
266.07	-45.994
266.44	-49.550
266.81	-53.404
267.18	-48.998
267.54	-47.823
267.91	-52.041
268.28	-51.238
268.64	-44.560
269.01	-41.866
269.38	-51.956
269.75	-52.498
270.11	-43.643
270.48	-48.335
270.85	-48.929
271.21	-45.521
271.58	-58.521
271.95	-49.210
272.32	-46.748
272.68	-54.233
273.05	-45.595
273.42	-50.042
273.78	-47.983
274.15	-45.089
274.52	-59.063
274.88	-55.328
275.25	-54.481
275.62	-56.104
275.98	-43.970
276.35	-43.191
276.72	-53.650
277.08	-45.863
277.45	-48.727
277.82	-49.117
278.18	-53.287
278.55	-52.700
278.92	-55.556
279.28	-47.382
279.65	-39.921
280.01	-48.070
280.38	-48.768
280.75	-52.222
281.11	-58.854
281.48	-47.510
281.85	-54.752
282.21	-52.659
282.58	-44.712
282.95	-44.374
283.31	-54.444
283.68	-47.974
284.04	-52.163
284.41	-56.327
284.78	-52.027
285.14	-52.421
285.51	-52.650
285.87	-47.359
286.24	-46.717
286.61	-58.781
286.97	-53.507
287.34	-43.404
287.70	-48.918
288.07	-47.329
288.44	-50.679
288.80	-58.216
289.17	-53.490
289.53	-55.160
289.90	-48.419
290.26	-55.993
290.63	-44.344
291.00	-46.852
291.36	-50.411
291.73	-50.792
292.09	-50.678
292.46	-48.458
292.82	-51.407
293.19	-53.596
293.56	-42.869
293.92	-47.754
294.29	-56.076
294.65	-47.722
295.02	-53.120
295.38	-50.377
295.75	-51.528
296.11	-49.913
296.48	-49.878
296.84	-46.651
297.21	-51.222
297.57	-58.223
297.94	-51.251
298.30	-44.657
298.67	-52.862
299.04	-49.224
299.40	-49.573
299.77	-43.564
300.13	-42.927
300.50	-45.513
300.86	-49.195
301.23	-45.656
301.59	-45.760
301.96	-52.751
302.32	-43.367
302.69	-48.296
303.05	-47.203
303.42	-55.030
303.78	-46.230
304.14	-42.226
304.51	-56.667
304.87	-45.477
305.24	-39.953
305.60	-50.571
305.97	-44.884
306.33	-55.341
306.70	-50.583
307.06	-47.232
307.43	-38.485
307.79	-43.654
308.16	-38.508
308.52	-54.230
308.88	-50.082
309.25	-40.173
309.61	-43.499
309.98	-45.144
310.34	-48.328
310.71	-52.243
311.07	-44.793
311.44	-48.829
311.80	-47.529
312.16	-41.641
312.53	-42.427
312.89	-38.521
313.26	-43.740
313.62	-41.999
313.98	-44.070
314.35	-45.706
314.71	-36.286
315.08	-45.760
315.44	-39.801
315.80	-37.509
316.17	-41.955
316.53	-35.977
316.90	-42.189
317.26	-44.379
317.62	-43.917
317.99	-39.118
318.35	-39.931
318.72	-43.645
319.08	-35.578
319.44	-41.229
319.81	-39.932
320.17	-33.637
320.53	-36.135
320.90	-33.976
321.26	-39.704
321.62	-38.345
321.99	-36.204
322.35	-36.846
322.72	-32.320
323.08	-33.709
323.44	-34.981
323.81	-34.491
324.17	-34.817
324.53	-38.682
324.90	-41.509
325.26	-33.313
325.62	-33.791
325.99	-37.940
326.35	-27.902
326.71	-28.458
327.08	-32.084
327.44	-29.225
327.80	-30.039
328.16	-28.026
328.53	-31.757
328.89	-35.741
329.25	-31.564
329.62	-23.748
329.98	-27.852
330.34	-28.515
330.71	-27.649
331.07	-29.291
331.43	-28.857
331.79	-26.174
332.16	-26.544
332.52	-26.476
332.88	-24.703
333.24	-25.976
333.61	-23.428
333.97	-23.298
334.33	-21.932
334.70	-22.339
335.06	-20.933
335.42	-24.740
335.78	-23.038
336.15	-20.523
336.51	-21.269
336.87	-23.411
337.23	-18.780
337.60	-20.973
337.96	-19.742
338.32	-19.816
338.68	-15.454
339.04	-18.168
339.41	-18.703
339.77	-20.528
340.13	-17.205
340.49	-18.234
340.86	-19.235
341.22	-19.287
341.58	-15.293
341.94	-18.614
342.30	-17.421
342.67	-16.717
343.03	-17.870
343.39	-16.629
343.75	-18.255
344.11	-14.210
344.48	-17.175
344.84	-14.814
345.20	-13.986
345.56	-15.903
345.92	-16.697
346.28	-14.860
346.65	-15.443
347.01	-14.449
347.37	-14.680
347.73	-14.421
348.09	-15.867
348.45	-14.643
348.82	-13.197
349.18	-13.607
349.54	-14.874
349.90	-11.983
350.26	-13.790
350.62	-11.699
350.98	-11.711
351.35	-13.034
351.71	-14.092
352.07	-11.736
352.43	-13.701
352.79	-11.301
353.15	-11.850
353.51	-11.153
353.87	-9.855
354.24	-11.104
354.60	-11.919
354.96	-10.128
355.32	-9.683
355.68	-10.443
356.04	-9.166
356.40	-10.273
356.76	-9.869
357.12	-9.932
357.48	-8.936
357.85	-9.246
358.21	-8.517
358.57	-8.858
358.93	-8.686
359.29	-8.776
359.65	-8.528
360.01	-9.347
360.37	-8.080
360.73	-8.296
361.09	-8.378
361.45	-8.325
361.81	-8.540
362.17	-6.971
362.53	-7.660
362.89	-7.037
363.25	-7.801
363.62	-7.546
363.98	-7.926
364.34	-7.647
364.70	-5.899
365.06	-8.244
365.42	-6.698
365.78	-6.217
366.14	-6.500
366.50	-6.916
366.86	-5.759
367.22	-6.102
367.58	-6.513
367.94	-6.423
368.30	-5.463
368.66	-6.364
369.02	-5.683
369.38	-5.201
369.74	-4.724
370.10	-5.146
370.46	-4.931
370.82	-5.147
371.18	-5.171
371.54	-4.530
371.90	-4.810
372.26	-4.759
372.62	-4.320
372.98	-4.106
373.33	-4.529
373.69	-5.370
374.05	-3.859
374.41	-5.076
374.77	-4.360
375.13	-4.380
375.49	-4.399
375.85	-3.942
376.21	-3.897
376.57	-3.973
376.93	-4.240
377.29	-3.606
377.65	-3.500
378.01	-3.126
378.37	-3.392
378.73	-3.430
379.08	-2.973
379.44	-2.576
379.80	-2.619
380.16	-2.168
380.52	-2.104
380.88	-2.325
381.24	-1.503
381.60	-2.452
381.96	-1.731
382.32	-1.515
382.67	-1.442
383.03	-1.830
383.39	-0.824
383.75	-1.407
384.11	-1.316
384.47	-1.338
384.83	-0.836
385.19	-0.990
385.54	-0.907
385.90	-0.677
386.26	-0.534
386.62	-0.380
386.98	-0.112
387.34	0.037
387.70	0.331
388.05	0.288
388.41	0.907
388.77	0.342
389.13	0.369
389.49	0.635
389.85	1.396
390.20	0.826
390.56	1.485
390.92	1.823
391.28	1.293
391.64	1.781
391.99	1.854
392.35	2.166
392.71	2.179
393.07	1.838
393.43	2.311
393.78	2.438
394.14	3.094
394.50	2.979
394.86	3.159
395.22	3.155
395.57	3.398
395.93	3.263
396.29	3.473
396.65	3.775
397.00	4.061
397.36	3.775
397.72	3.951
398.08	4.751
398.43	4.548
398.79	4.779
399.15	4.804
399.51	4.855
399.86	5.170
400.22	4.600
400.58	5.356
400.94	5.424
401.29	6.169
401.65	5.905
402.01	6.376
402.37	5.863
402.72	6.467
403.08	6.674
403.44	6.722
403.79	6.517
404.15	6.981
404.51	6.951
404.86	7.242
405.22	7.381
405.58	7.779
405.94	7.643
406.29	7.740
406.65	7.682
407.01	8.119
407.36	8.103
407.72	8.503
408.08	8.250
408.43	8.372
408.79	8.517
409.15	9.076
409.50	9.456
409.86	8.811
410.22	9.294
410.57	9.240
410.93	9.505
411.29	9.912
411.64	9.891
412.00	10.149
412.35	10.050
412.71	10.453
413.07	10.543
413.42	10.581
413.78	10.737
414.14	10.714
414.49	10.972
414.85	10.905
415.20	11.536
415.56	11.408
415.92	11.645
416.27	11.591
416.63	12.102
416.98	11.763
417.34	12.371
417.70	12.165
418.05	12.461
418.41	12.792
418.76	12.612
419.12	12.735
419.47	12.876
419.83	13.293
420.19	13.312
420.54	13.481
420.90	13.226
421.25	13.610
421.61	13.583
421.96	13.785
422.32	13.984
422.67	14.111
423.03	14.039
423.39	14.467
423.74	14.419
424.10	14.509
424.45	14.504
424.81	14.736
425.16	14.729
425.52	15.049
425.87	15.124
426.23	15.415
426.58	15.302
426.94	15.403
427.29	15.724
427.65	15.755
428.00	15.847
428.36	15.731
428.71	15.804
429.07	16.117
429.42	16.348
429.78	16.630
430.13	16.597
430.49	16.821
430.84	16.952
431.19	16.970
431.55	16.947
431.90	17.126
432.26	17.123
432.61	17.472
432.97	17.580
433.32	17.673
433.68	17.817
434.03	17.785
434.39	17.858
434.74	17.866
435.09	18.078
435.45	18.068
435.80	18.198
436.16	18.457
436.51	18.511
436.86	18.512
437.22	18.784
437.57	18.772
437.93	18.876
438.28	19.024
438.63	19.028
438.99	19.146
439.34	19.248
439.70	19.447
440.05	19.408
440.40	19.738
440.76	19.710
441.11	19.751
441.47	19.840
441.82	19.908
442.17	20.026
442.53	20.108
442.88	20.198
443.23	20.323
443.59	20.410
443.94	20.572
444.29	20.471
444.65	20.769
445.00	20.801
445.35	21.018
445.71	21.007
446.06	21.079
446.41	21.092
446.77	21.123
447.12	21.309
447.47	21.258
447.83	21.453
448.18	21.646
448.53	21.608
448.89	21.724
449.24	21.804
449.59	21.827
449.94	22.068
450.30	22.009
450.65	22.147
451.00	22.307
451.36	22.428
451.71	22.624
452.06	22.456
452.41	22.531
452.77	22.795
453.12	22.735
453.47	22.789
453.82	23.042
454.18	23.012
454.53	23.155
454.88	23.237
455.23	23.423
455.59	23.455
455.94	23.513
456.29	23.627
456.64	23.651
457.00	23.840
457.35	23.914
457.70	23.939
458.05	24.018
458.40	24.278
458.76	24.360
459.11	24.334
459.46	24.450
459.81	24.584
460.16	24.391
460.52	24.671
460.87	24.759
461.22	24.761
461.57	24.932
461.92	25.025
462.28	25.042
462.63	25.183
462.98	25.195
463.33	25.283
463.68	25.360
464.03	25.527
464.38	25.487
464.74	25.601
465.09	25.779
465.44	25.887
465.79	25.894
466.14	25.841
466.49	25.872
466.84	26.079
467.20	26.127
467.55	26.156
467.90	26.289
468.25	26.348
468.60	26.290
468.95	26.398
469.30	26.412
469.65	26.504
470.00	26.683
470.36	26.713
470.71	26.657
471.06	26.722
471.41	26.708
471.76	26.805
472.11	26.850
472.46	26.918
472.81	26.978
473.16	26.912
473.51	26.998
473.86	26.961
474.21	27.092
474.56	27.125
474.91	27.102
475.26	27.158
475.62	27.183
475.97	27.149
476.32	27.094
476.67	27.233
477.02	27.154
477.37	27.065
477.72	27.212
478.07	27.228
478.42	27.246
478.77	27.238
479.12	27.261
479.47	27.195
479.82	27.250
480.17	27.322
480.52	27.138
480.87	27.206
481.22	27.188
481.57	27.313
481.92	27.269
482.27	27.196
482.62	27.126
482.97	27.180
483.32	27.127
483.67	27.142
484.02	27.223
484.36	27.127
484.71	27.228
485.06	27.223
485.41	27.245
485.76	27.331
486.11	27.202
486.46	27.347
486.81	27.308
487.16	27.403
487.51	27.446
487.86	27.497
488.21	27.540
488.56	27.564
488.91	27.682
489.25	27.729
489.60	27.755
489.95	27.783
490.30	27.881
490.65	27.946
491.00	28.026
491.35	28.114
491.70	28.090
492.05	28.236
492.39	28.339
492.74	28.437
493.09	28.463
493.44	28.531
493.79	28.650
494.14	28.708
494.49	28.773
494.83	28.822
495.18	28.916
495.53	28.996
495.88	29.162
496.23	29.117
496.58	29.185
496.92	29.378
497.27	29.472
497.62	29.427
497.97	29.607
498.32	29.678
498.67	29.780
499.01	29.815
499.36	30.010
499.71	29.980
500.06	30.008
500.41	30.084
500.75	30.202
501.10	30.239
501.45	30.291
501.80	30.390
502.14	30.399
502.49	30.448
502.84	30.496
503.19	30.653
503.53	30.660
503.88	30.754
504.23	30.799
504.58	30.877
504.92	30.889
505.27	30.960
505.62	30.967
505.97	31.035
506.31	31.010
506.66	31.069
507.01	31.091
507.36	31.137
507.70	31.125
508.05	31.081
508.40	31.194
508.74	31.177
509.09	31.158
509.44	31.089
509.79	31.129
510.13	31.101
510.48	31.106
510.83	31.088
511.17	31.126
511.52	31.073
511.87	31.036
512.21	31.014
512.56	31.019
512.91	31.149
513.25	31.142
513.60	31.156
513.95	31.172
514.29	31.274
514.64	31.382
514.98	31.398
515.33	31.430
515.68	31.441
516.02	31.475
516.37	31.561
516.72	31.565
517.06	31.711
517.41	31.705
517.75	31.709
518.10	31.791
518.45	31.742
518.79	31.796
519.14	31.832
519.48	31.916
519.83	31.907
520.18	31.986
520.52	31.970
520.87	31.945
521.21	32.038
521.56	32.069
521.90	32.100
522.25	32.032
522.60	32.048
522.94	32.086
523.29	32.097
523.63	32.033
523.98	32.021
524.32	32.123
524.67	32.079
525.01	32.057
525.36	32.005
525.70	31.989
526.05	31.977
526.39	31.938
526.74	31.933
527.08	31.888
527.43	31.778
527.77	31.735
528.12	31.753
528.46	31.612
528.81	31.687
529.15	31.561
529.50	31.381
529.84	31.367
530.19	31.299
530.53	31.173
530.88	31.100
531.22	30.947
531.57	30.903
531.91	30.721
532.26	30.589
532.60	30.433
532.94	30.301
533.29	30.164
533.63	30.008
533.98	29.789
534.32	29.712
534.67	29.401
535.01	29.296
535.35	29.044
535.70	28.800
536.04	28.681
536.39	28.502
536.73	28.252
537.07	28.048
537.42	27.805
537.76	27.613
538.11	27.399
538.45	27.186
538.79	27.027
539.14	26.757
539.48	26.527
539.82	26.355
540.17	26.170
540.51	25.983
540.85	25.764
541.20	25.562
541.54	25.467
541.89	25.341
542.23	25.163
542.57	24.972
542.92	24.985
543.26	24.826
543.60	24.704
543.94	24.658
544.29	24.601
544.63	24.553
544.97	24.515
545.32	24.468
545.66	24.464
546.00	24.452
546.35	24.473
546.69	24.433
547.03	24.454
547.37	24.551
547.72	24.595
548.06	24.625
548.40	24.693
548.75	24.697
549.09	24.738
549.43	24.871
549.77	24.945
550.12	25.076
550.46	25.169
550.80	25.273
551.14	25.377
551.49	25.460
551.83	25.635
552.17	25.796
552.51	25.953
552.85	26.101
553.20	26.325
553.54	26.499
553.88	26.748
554.22	26.937
554.56	27.097
554.91	27.404
555.25	27.636
555.59	27.870
555.93	28.126
556.27	28.323
556.62	28.609
556.96	28.912
557.30	29.140
557.64	29.375
557.98	29.739
558.32	30.006
558.67	30.171
559.01	30.540
559.35	30.741
559.69	30.975
560.03	31.251
560.37	31.606
560.71	31.868
561.05	32.048
561.40	32.234
561.74	32.573
562.08	32.817
562.42	33.120
562.76	33.290
563.10	33.490
563.44	33.638
563.78	33.855
564.12	34.036
564.46	34.278
564.81	34.402
565.15	34.519
565.49	34.706
565.83	34.900
566.17	34.884
566.51	35.026
566.85	35.134
567.19	35.229
567.53	35.339
567.87	35.477
568.21	35.431
568.55	35.483
568.89	35.546
569.23	35.557
569.57	35.627
569.91	35.627
570.25	35.617
570.59	35.622
570.93	35.643
571.27	35.623
571.61	35.514
571.95	35.487
572.29	35.492
572.63	35.391
572.97	35.294
573.31	35.249
573.65	35.187
573.99	35.041
574.33	35.007
574.67	34.919
575.01	34.781
575.35	34.671
575.69	34.616
576.03	34.456
576.37	34.293
576.71	34.135
577.05	33.993
577.39	33.874
577.73	33.719
578.06	33.562
578.40	33.373
578.74	33.239
579.08	32.995
579.42	32.868
579.76	32.653
580.10	32.435
580.44	32.314
580.78	32.104
581.12	31.864
581.45	31.617
581.79	31.479
582.13	31.327
582.47	31.042
582.81	30.847
583.15	30.679
583.49	30.501
583.83	30.368
584.16	30.192
584.50	30.016
584.84	29.900
585.18	29.712
585.52	29.537
585.86	29.321
586.19	29.185
586.53	29.091
586.87	28.967
587.21	28.781
587.55	28.569
587.88	28.443
588.22	28.338
588.56	28.024
588.90	27.818
589.24	27.699
589.57	27.465
589.91	27.296
590.25	27.037
590.59	26.838
590.92	26.575
591.26	26.361
591.60	26.054
591.94	25.828
592.27	25.570
592.61	25.311
592.95	25.031
593.29	24.718
593.62	24.440
593.96	24.118
594.30	23.773
594.64	23.476
594.97	23.084
595.31	22.700
595.65	22.305
595.98	21.897
596.32	21.461
596.66	21.066
597.00	20.540
597.33	20.041
597.67	19.576
598.01	19.119
598.34	18.628
598.68	18.142
599.02	17.638
599.35	17.216
599.69	16.794
600.03	16.358
600.36	15.941
600.70	15.601
601.03	15.230
601.37	14.926
601.71	14.593
602.04	14.223
602.38	13.985
602.72	13.656
603.05	13.391
603.39	13.088
603.72	12.814
604.06	12.514
604.40	12.227
604.73	11.920
605.07	11.602
605.40	11.272
605.74	10.966
606.08	10.679
606.41	10.364
606.75	10.065
607.08	9.774
607.42	9.450
607.75	9.149
608.09	8.873
608.42	8.541
608.76	8.246
609.10	7.905
609.43	7.644
609.77	7.336
610.10	7.053
610.44	6.808
610.77	6.494
611.11	6.210
611.44	5.938
611.78	5.712
612.11	5.442
612.45	5.200
612.78	4.940
613.12	4.716
613.45	4.487
613.79	4.275
614.12	4.064
614.46	3.863
614.79	3.668
615.13	3.499
615.46	3.348
615.79	3.187
616.13	3.026
616.46	2.902
616.80	2.774
617.13	2.648
617.47	2.529
617.80	2.439
618.13	2.310
618.47	2.237
618.80	2.149
619.14	2.075
619.47	1.993
619.81	1.948
620.14	1.865
620.47	1.803
620.81	1.742
621.14	1.687
621.47	1.648
621.81	1.583
622.14	1.517
622.48	1.470
622.81	1.443
623.14	1.400
623.48	1.358
623.81	1.320
624.14	1.324
624.48	1.255
624.81	1.245
625.14	1.215
625.48	1.217
625.81	1.184
626.14	1.151
626.48	1.172
626.81	1.165
627.14	1.176
627.48	1.183
627.81	1.192
628.14	1.227
628.47	1.207
628.81	1.235
629.14	1.249
629.47	1.319
629.81	1.320
630.14	1.392
630.47	1.430
