SpectraSuite Data File
++++++++++++++++++++++++++++++++++++
Date: Tue Apr 07 18:30:14 BST 2015
User: mpfc3
Dark Spectrum Present: Yes
Reference Spectrum Present: Yes
Number of Sampled Component Spectra: 1
Spectrometers: USB2E3636
Integration Time (usec): 30000 (USB2E3636)
Spectra Averaged: 100 (USB2E3636)
Boxcar Smoothing: 0 (USB2E3636)
Correct for Electrical Dark: No (USB2E3636)
Strobe/Lamp Enabled: No (USB2E3636)
Correct for Detector Non-linearity: No (USB2E3636)
Correct for Stray Light: No (USB2E3636)
Number of Pixels in Processed Spectrum: 2048
>>>>>Begin Processed Spectral Data<<<<<
180.28	0.000
180.65	1129.730
181.02	662.687
181.39	538.947
181.77	488.119
182.14	755.000
182.51	1720.690
182.88	665.753
183.25	886.538
183.63	817.857
184.00	677.778
184.37	971.111
184.74	1294.595
185.11	1692.593
185.49	616.471
185.86	713.333
186.23	976.786
186.60	855.000
186.97	468.807
187.35	1376.190
187.72	373.846
188.09	641.333
188.46	1374.286
188.83	414.516
189.20	-152.424
189.58	-17.740
189.95	-16.134
190.32	-20.384
190.69	-14.617
191.06	-19.811
191.43	-17.543
191.81	-15.818
192.18	-15.854
192.55	-18.040
192.92	-22.401
193.29	-18.048
193.66	-20.159
194.03	-18.554
194.41	-20.925
194.78	-17.177
195.15	-17.859
195.52	-20.366
195.89	-17.196
196.26	-20.870
196.63	-18.676
197.01	-15.060
197.38	-19.224
197.75	-22.605
198.12	-17.209
198.49	-16.115
198.86	-14.270
199.23	-14.743
199.60	-18.540
199.98	-16.735
200.35	-15.155
200.72	-21.651
201.09	-17.857
201.46	-20.571
201.83	-19.088
202.20	-18.288
202.57	-16.715
202.94	-23.547
203.31	-20.554
203.69	-24.821
204.06	-24.130
204.43	-20.559
204.80	-18.438
205.17	-13.631
205.54	-20.071
205.91	-18.393
206.28	-16.572
206.65	-16.416
207.02	-18.476
207.39	-17.509
207.76	-20.144
208.14	-19.048
208.51	-21.083
208.88	-15.362
209.25	-17.794
209.62	-21.378
209.99	-16.295
210.36	-20.393
210.73	-18.821
211.10	-23.198
211.47	-17.971
211.84	-19.748
212.21	-20.062
212.58	-20.964
212.95	-13.061
213.32	-22.435
213.69	-18.684
214.06	-24.117
214.43	-25.236
214.80	-15.758
215.17	-22.257
215.55	-19.632
215.92	-16.508
216.29	-22.440
216.66	-21.027
217.03	-18.793
217.40	-23.669
217.77	-18.472
218.14	-20.781
218.51	-19.437
218.88	-20.442
219.25	-17.491
219.62	-19.808
219.99	-20.363
220.36	-25.598
220.73	-20.354
221.10	-21.447
221.47	-25.382
221.84	-22.585
222.21	-19.605
222.58	-23.995
222.95	-18.813
223.32	-26.863
223.69	-26.467
224.06	-25.290
224.43	-26.334
224.80	-23.711
225.17	-21.851
225.54	-25.150
225.91	-25.184
226.27	-7.243
226.64	-24.350
227.01	-24.079
227.38	-28.400
227.75	-22.192
228.12	-24.894
228.49	-20.568
228.86	-26.066
229.23	-22.576
229.60	-21.254
229.97	-27.711
230.34	-27.498
230.71	-21.994
231.08	-24.433
231.45	-19.744
231.82	-24.003
232.19	-24.965
232.56	-27.179
232.93	-28.397
233.30	-27.019
233.66	-27.620
234.03	-23.902
234.40	-25.198
234.77	-20.014
235.14	-24.191
235.51	-24.364
235.88	-27.389
236.25	-27.676
236.62	-29.296
236.99	-27.147
237.36	-27.202
237.73	-23.458
238.09	-24.462
238.46	-26.192
238.83	-32.521
239.20	-23.988
239.57	-24.547
239.94	-27.143
240.31	-27.373
240.68	-29.139
241.05	-28.074
241.41	-20.959
241.78	-25.600
242.15	-23.100
242.52	-21.465
242.89	-25.765
243.26	-26.956
243.63	-21.221
244.00	-28.775
244.36	-26.178
244.73	-27.610
245.10	-30.086
245.47	-25.602
245.84	-27.138
246.21	-25.923
246.58	-28.413
246.94	-26.702
247.31	-26.568
247.68	-28.976
248.05	-28.256
248.42	-22.706
248.79	-19.512
249.15	-26.284
249.52	-29.339
249.89	-29.571
250.26	-26.881
250.63	-25.744
251.00	-25.272
251.36	-31.230
251.73	-27.104
252.10	-27.961
252.47	-31.006
252.84	-29.218
253.20	-36.623
253.57	-26.559
253.94	-25.152
254.31	-29.489
254.68	-32.692
255.05	-27.632
255.41	-27.970
255.78	-26.094
256.15	-34.242
256.52	-28.093
256.88	-33.362
257.25	-27.208
257.62	-35.344
257.99	-27.517
258.36	-31.424
258.72	-32.877
259.09	-31.371
259.46	-25.984
259.83	-29.639
260.19	-28.203
260.56	-29.975
260.93	-33.867
261.30	-29.951
261.67	-32.732
262.03	-31.429
262.40	-26.853
262.77	-31.091
263.14	-25.103
263.50	-26.544
263.87	-26.215
264.24	-32.687
264.61	-31.922
264.97	-28.052
265.34	-28.737
265.71	-29.371
266.07	-28.365
266.44	-24.203
266.81	-25.021
267.18	-26.711
267.54	-24.651
267.91	-28.061
268.28	-28.300
268.64	-26.160
269.01	-24.083
269.38	-30.102
269.75	-26.926
270.11	-21.008
270.48	-28.838
270.85	-28.449
271.21	-28.733
271.58	-38.683
271.95	-26.268
272.32	-27.317
272.68	-32.716
273.05	-26.591
273.42	-29.432
273.78	-29.916
274.15	-27.134
274.52	-39.257
274.88	-32.310
275.25	-33.008
275.62	-33.506
275.98	-26.415
276.35	-31.245
276.72	-30.607
277.08	-28.755
277.45	-28.268
277.82	-31.034
278.18	-29.758
278.55	-32.840
278.92	-34.933
279.28	-30.472
279.65	-25.771
280.01	-31.842
280.38	-27.443
280.75	-31.795
281.11	-35.243
281.48	-24.571
281.85	-35.397
282.21	-29.160
282.58	-25.080
282.95	-20.910
283.31	-29.573
283.68	-31.431
284.04	-28.075
284.41	-29.086
284.78	-22.720
285.14	-32.285
285.51	-27.541
285.87	-32.198
286.24	-29.040
286.61	-38.441
286.97	-32.284
287.34	-27.932
287.70	-30.200
288.07	-27.445
288.44	-34.041
288.80	-31.979
289.17	-33.474
289.53	-34.875
289.90	-25.208
290.26	-36.570
290.63	-29.067
291.00	-25.184
291.36	-30.378
291.73	-28.107
292.09	-28.475
292.46	-26.786
292.82	-30.464
293.19	-32.456
293.56	-24.793
293.92	-23.960
294.29	-33.941
294.65	-28.169
295.02	-26.256
295.38	-31.715
295.75	-29.032
296.11	-32.465
296.48	-30.950
296.84	-30.508
297.21	-30.803
297.57	-37.819
297.94	-26.402
298.30	-20.893
298.67	-29.125
299.04	-29.397
299.40	-25.853
299.77	-22.920
300.13	-26.656
300.50	-26.516
300.86	-27.375
301.23	-24.803
301.59	-28.212
301.96	-31.877
302.32	-24.670
302.69	-22.943
303.05	-34.576
303.42	-35.249
303.78	-31.814
304.14	-23.520
304.51	-32.393
304.87	-25.740
305.24	-21.495
305.60	-28.059
305.97	-22.171
306.33	-30.193
306.70	-33.917
307.06	-29.782
307.43	-20.152
307.79	-24.541
308.16	-24.039
308.52	-29.442
308.88	-34.258
309.25	-23.899
309.61	-26.005
309.98	-23.596
310.34	-26.990
310.71	-29.983
311.07	-23.583
311.44	-31.187
311.80	-30.510
312.16	-24.088
312.53	-26.978
312.89	-28.274
313.26	-21.603
313.62	-24.620
313.98	-25.478
314.35	-21.733
314.71	-17.429
315.08	-30.405
315.44	-21.819
315.80	-19.726
316.17	-26.767
316.53	-20.326
316.90	-26.278
317.26	-22.116
317.62	-22.774
317.99	-26.102
318.35	-21.655
318.72	-25.070
319.08	-19.184
319.44	-23.066
319.81	-22.373
320.17	-19.388
320.53	-20.119
320.90	-21.002
321.26	-22.708
321.62	-17.991
321.99	-18.265
322.35	-20.013
322.72	-17.990
323.08	-18.512
323.44	-16.175
323.81	-16.867
324.17	-16.646
324.53	-22.450
324.90	-21.887
325.26	-15.570
325.62	-20.574
325.99	-20.854
326.35	-13.482
326.71	-15.424
327.08	-18.399
327.44	-16.676
327.80	-14.381
328.16	-16.192
328.53	-16.754
328.89	-19.400
329.25	-17.600
329.62	-10.946
329.98	-15.242
330.34	-14.307
330.71	-14.834
331.07	-17.729
331.43	-17.324
331.79	-13.710
332.16	-13.673
332.52	-14.618
332.88	-13.327
333.24	-14.545
333.61	-12.296
333.97	-11.741
334.33	-13.534
334.70	-13.535
335.06	-11.470
335.42	-14.341
335.78	-16.126
336.15	-10.469
336.51	-10.448
336.87	-13.921
337.23	-9.451
337.60	-12.940
337.96	-10.751
338.32	-11.209
338.68	-9.084
339.04	-8.970
339.41	-10.682
339.77	-10.673
340.13	-12.839
340.49	-10.523
340.86	-9.582
341.22	-10.660
341.58	-7.013
341.94	-10.225
342.30	-8.542
342.67	-9.272
343.03	-10.353
343.39	-9.617
343.75	-9.978
344.11	-6.870
344.48	-9.689
344.84	-6.995
345.20	-7.084
345.56	-8.056
345.92	-9.135
346.28	-5.519
346.65	-7.750
347.01	-6.511
347.37	-6.312
347.73	-6.974
348.09	-8.044
348.45	-8.060
348.82	-7.056
349.18	-6.163
349.54	-7.593
349.90	-5.953
350.26	-6.180
350.62	-4.819
350.98	-5.251
351.35	-7.396
351.71	-6.271
352.07	-5.549
352.43	-6.637
352.79	-7.277
353.15	-6.351
353.51	-4.054
353.87	-5.421
354.24	-5.152
354.60	-6.619
354.96	-5.620
355.32	-5.086
355.68	-4.517
356.04	-3.468
356.40	-5.248
356.76	-4.261
357.12	-5.026
357.48	-4.684
357.85	-4.633
358.21	-3.418
358.57	-5.027
358.93	-3.953
359.29	-4.306
359.65	-4.101
360.01	-4.593
360.37	-4.040
360.73	-4.383
361.09	-4.319
361.45	-4.591
361.81	-3.268
362.17	-3.144
362.53	-3.232
362.89	-3.211
363.25	-3.480
363.62	-3.492
363.98	-3.164
364.34	-3.808
364.70	-2.396
365.06	-3.516
365.42	-3.127
365.78	-2.077
366.14	-3.503
366.50	-2.895
366.86	-3.077
367.22	-2.513
367.58	-3.021
367.94	-2.164
368.30	-2.778
368.66	-3.075
369.02	-2.927
369.38	-2.000
369.74	-2.081
370.10	-2.294
370.46	-2.509
370.82	-2.936
371.18	-1.736
371.54	-2.035
371.90	-1.283
372.26	-2.492
372.62	-1.888
372.98	-1.672
373.33	-1.786
373.69	-1.056
374.05	-0.945
374.41	-2.411
374.77	-1.644
375.13	-1.420
375.49	-1.993
375.85	-0.719
376.21	-1.094
376.57	-1.614
376.93	-1.174
377.29	-1.329
377.65	-0.754
378.01	-0.983
378.37	-0.949
378.73	-0.636
379.08	-0.960
379.44	-0.724
379.80	-0.776
380.16	0.266
380.52	-0.281
380.88	0.332
381.24	0.385
381.60	-0.209
381.96	0.600
382.32	0.128
382.67	0.611
383.03	0.805
383.39	0.833
383.75	0.563
384.11	0.662
384.47	0.577
384.83	0.987
385.19	1.054
385.54	1.017
385.90	1.292
386.26	1.678
386.62	1.528
386.98	1.956
387.34	1.842
387.70	2.142
388.05	2.285
388.41	2.822
388.77	2.375
389.13	2.542
389.49	2.597
389.85	3.200
390.20	2.202
390.56	2.964
390.92	3.069
391.28	3.011
391.64	3.550
391.99	3.675
392.35	3.249
392.71	3.532
393.07	3.916
393.43	3.918
393.78	3.947
394.14	4.396
394.50	4.595
394.86	4.490
395.22	4.388
395.57	5.014
395.93	4.856
396.29	5.261
396.65	4.976
397.00	5.501
397.36	5.718
397.72	5.700
398.08	5.924
398.43	5.678
398.79	5.604
399.15	6.022
399.51	6.206
399.86	6.107
400.22	6.274
400.58	6.580
400.94	6.619
401.29	7.434
401.65	7.223
402.01	7.491
402.37	7.026
402.72	7.557
403.08	7.596
403.44	7.856
403.79	7.478
404.15	7.942
404.51	8.050
404.86	8.432
405.22	8.202
405.58	8.503
405.94	8.287
406.29	8.948
406.65	8.750
407.01	8.877
407.36	9.280
407.72	9.344
408.08	9.260
408.43	9.480
408.79	9.428
409.15	10.126
409.50	10.186
409.86	9.967
410.22	10.411
410.57	10.459
410.93	10.423
411.29	10.657
411.64	10.753
412.00	11.043
412.35	10.863
412.71	11.097
413.07	11.268
413.42	11.671
413.78	11.635
414.14	11.667
414.49	11.905
414.85	11.724
415.20	12.487
415.56	12.473
415.92	12.420
416.27	12.470
416.63	12.735
416.98	12.498
417.34	13.143
417.70	13.020
418.05	13.084
418.41	13.348
418.76	13.742
419.12	13.397
419.47	13.884
419.83	13.933
420.19	13.862
420.54	13.807
420.90	13.988
421.25	14.325
421.61	14.287
421.96	14.429
422.32	14.383
422.67	14.901
423.03	14.669
423.39	15.080
423.74	15.187
424.10	15.289
424.45	15.397
424.81	15.592
425.16	15.379
425.52	15.609
425.87	15.639
426.23	15.933
426.58	16.062
426.94	16.159
427.29	16.414
427.65	16.451
428.00	16.387
428.36	16.332
428.71	16.587
429.07	16.659
429.42	16.982
429.78	17.138
430.13	17.191
430.49	17.453
430.84	17.387
431.19	17.631
431.55	17.777
431.90	17.738
432.26	17.654
432.61	17.972
432.97	18.033
433.32	17.991
433.68	18.224
434.03	18.403
434.39	18.542
434.74	18.718
435.09	18.742
435.45	18.741
435.80	18.733
436.16	19.012
436.51	18.865
436.86	19.164
437.22	19.222
437.57	19.347
437.93	19.417
438.28	19.621
438.63	19.733
438.99	19.620
439.34	19.851
439.70	20.078
440.05	19.949
440.40	20.113
440.76	20.132
441.11	20.168
441.47	20.284
441.82	20.491
442.17	20.495
442.53	20.480
442.88	20.757
443.23	20.781
443.59	20.795
443.94	21.131
444.29	21.029
444.65	21.187
445.00	21.273
445.35	21.412
445.71	21.368
446.06	21.575
446.41	21.610
446.77	21.703
447.12	21.956
447.47	21.903
447.83	21.897
448.18	21.951
448.53	22.143
448.89	22.140
449.24	22.148
449.59	22.239
449.94	22.612
450.30	22.515
450.65	22.662
451.00	22.652
451.36	22.888
451.71	22.782
452.06	22.944
452.41	22.957
452.77	23.191
453.12	23.121
453.47	23.304
453.82	23.438
454.18	23.515
454.53	23.640
454.88	23.596
455.23	23.665
455.59	23.910
455.94	23.868
456.29	23.983
456.64	24.087
457.00	24.196
457.35	24.189
457.70	24.375
458.05	24.590
458.40	24.411
458.76	24.619
459.11	24.717
459.46	24.773
459.81	24.816
460.16	24.680
460.52	24.973
460.87	25.025
461.22	25.264
461.57	25.305
461.92	25.402
462.28	25.252
462.63	25.452
462.98	25.529
463.33	25.638
463.68	25.636
464.03	25.811
464.38	25.741
464.74	25.958
465.09	26.003
465.44	26.180
465.79	26.194
466.14	26.092
466.49	26.198
466.84	26.341
467.20	26.414
467.55	26.431
467.90	26.551
468.25	26.710
468.60	26.642
468.95	26.660
469.30	26.786
469.65	26.803
470.00	26.840
470.36	26.886
470.71	26.986
471.06	27.012
471.41	26.977
471.76	26.969
472.11	27.085
472.46	27.168
472.81	27.111
473.16	27.188
473.51	27.252
473.86	27.223
474.21	27.305
474.56	27.306
474.91	27.309
475.26	27.275
475.62	27.380
475.97	27.333
476.32	27.351
476.67	27.354
477.02	27.308
477.37	27.290
477.72	27.369
478.07	27.306
478.42	27.348
478.77	27.310
479.12	27.310
479.47	27.369
479.82	27.439
480.17	27.385
480.52	27.251
480.87	27.369
481.22	27.298
481.57	27.372
481.92	27.280
482.27	27.218
482.62	27.179
482.97	27.315
483.32	27.364
483.67	27.218
484.02	27.289
484.36	27.247
484.71	27.352
485.06	27.251
485.41	27.317
485.76	27.397
486.11	27.371
486.46	27.372
486.81	27.396
487.16	27.469
487.51	27.567
487.86	27.555
488.21	27.580
488.56	27.628
488.91	27.762
489.25	27.768
489.60	27.742
489.95	27.811
490.30	27.914
490.65	28.018
491.00	28.024
491.35	28.141
491.70	28.173
492.05	28.282
492.39	28.266
492.74	28.356
493.09	28.504
493.44	28.610
493.79	28.670
494.14	28.661
494.49	28.716
494.83	28.832
495.18	28.935
495.53	28.945
495.88	29.109
496.23	29.103
496.58	29.229
496.92	29.363
497.27	29.318
497.62	29.443
497.97	29.508
498.32	29.624
498.67	29.692
499.01	29.758
499.36	29.893
499.71	29.913
500.06	29.932
500.41	30.076
500.75	30.149
501.10	30.262
501.45	30.285
501.80	30.320
502.14	30.363
502.49	30.436
502.84	30.476
503.19	30.595
503.53	30.580
503.88	30.763
504.23	30.652
504.58	30.821
504.92	30.855
505.27	30.870
505.62	30.930
505.97	30.913
506.31	30.934
506.66	31.019
507.01	30.994
507.36	31.068
507.70	31.080
508.05	31.004
508.40	31.089
508.74	31.102
509.09	31.107
509.44	31.073
509.79	31.045
510.13	31.038
510.48	31.035
510.83	31.017
511.17	31.065
511.52	30.994
511.87	30.887
512.21	30.954
512.56	30.938
512.91	31.037
513.25	31.082
513.60	31.089
513.95	31.141
514.29	31.227
514.64	31.230
514.98	31.234
515.33	31.307
515.68	31.347
516.02	31.419
516.37	31.413
516.72	31.498
517.06	31.592
517.41	31.544
517.75	31.658
518.10	31.729
518.45	31.700
518.79	31.753
519.14	31.738
519.48	31.812
519.83	31.824
520.18	31.860
520.52	31.858
520.87	31.890
521.21	31.893
521.56	32.021
521.90	32.014
522.25	31.916
522.60	31.969
522.94	32.042
523.29	32.063
523.63	32.023
523.98	31.988
524.32	32.044
524.67	32.047
525.01	32.004
525.36	31.999
525.70	31.956
526.05	31.960
526.39	31.896
526.74	31.909
527.08	31.949
527.43	31.821
527.77	31.640
528.12	31.710
528.46	31.576
528.81	31.567
529.15	31.560
529.50	31.383
529.84	31.221
530.19	31.266
530.53	31.103
530.88	31.018
531.22	30.963
531.57	30.762
531.91	30.682
532.26	30.557
532.60	30.439
532.94	30.294
533.29	30.095
533.63	29.977
533.98	29.830
534.32	29.627
534.67	29.411
535.01	29.266
535.35	29.038
535.70	28.815
536.04	28.664
536.39	28.427
536.73	28.230
537.07	27.973
537.42	27.820
537.76	27.615
538.11	27.384
538.45	27.080
538.79	26.938
539.14	26.744
539.48	26.531
539.82	26.399
540.17	26.177
540.51	25.952
540.85	25.764
541.20	25.618
541.54	25.493
541.89	25.309
542.23	25.162
542.57	25.009
542.92	24.987
543.26	24.849
543.60	24.734
543.94	24.730
544.29	24.655
544.63	24.602
544.97	24.540
545.32	24.467
545.66	24.521
546.00	24.476
546.35	24.492
546.69	24.497
547.03	24.505
547.37	24.564
547.72	24.636
548.06	24.656
548.40	24.723
548.75	24.799
549.09	24.868
549.43	24.988
549.77	24.997
550.12	25.116
550.46	25.203
550.80	25.343
551.14	25.469
551.49	25.516
551.83	25.738
552.17	25.910
552.51	26.004
552.85	26.170
553.20	26.421
553.54	26.577
553.88	26.829
554.22	26.909
554.56	27.158
554.91	27.503
555.25	27.750
555.59	27.908
555.93	28.197
556.27	28.428
556.62	28.661
556.96	29.002
557.30	29.277
557.64	29.509
557.98	29.837
558.32	30.061
558.67	30.316
559.01	30.654
559.35	30.863
559.69	31.122
560.03	31.351
560.37	31.740
560.71	31.989
561.05	32.277
561.40	32.412
561.74	32.667
562.08	32.912
562.42	33.270
562.76	33.404
563.10	33.634
563.44	33.800
563.78	33.996
564.12	34.144
564.46	34.396
564.81	34.514
565.15	34.624
565.49	34.795
565.83	34.988
566.17	35.069
566.51	35.179
566.85	35.364
567.19	35.365
567.53	35.458
567.87	35.588
568.21	35.648
568.55	35.570
568.89	35.731
569.23	35.702
569.57	35.745
569.91	35.779
570.25	35.759
570.59	35.758
570.93	35.794
571.27	35.666
571.61	35.651
571.95	35.646
572.29	35.648
572.63	35.534
572.97	35.500
573.31	35.350
573.65	35.326
573.99	35.178
574.33	35.085
574.67	34.986
575.01	34.881
575.35	34.837
575.69	34.787
576.03	34.537
576.37	34.457
576.71	34.293
577.05	34.203
577.39	34.011
577.73	33.827
578.06	33.685
578.40	33.554
578.74	33.366
579.08	33.168
579.42	32.959
579.76	32.791
580.10	32.605
580.44	32.400
580.78	32.158
581.12	31.967
581.45	31.800
581.79	31.633
582.13	31.417
582.47	31.234
582.81	31.003
583.15	30.842
583.49	30.602
583.83	30.543
584.16	30.334
584.50	30.115
584.84	30.068
585.18	29.800
585.52	29.626
585.86	29.526
586.19	29.385
586.53	29.252
586.87	29.124
587.21	28.879
587.55	28.702
587.88	28.588
588.22	28.415
588.56	28.180
588.90	27.996
589.24	27.822
589.57	27.616
589.91	27.358
590.25	27.159
590.59	26.922
590.92	26.663
591.26	26.430
591.60	26.230
591.94	26.027
592.27	25.689
592.61	25.356
592.95	25.120
593.29	24.869
593.62	24.532
593.96	24.235
594.30	23.891
594.64	23.612
594.97	23.228
595.31	22.805
595.65	22.424
595.98	22.011
596.32	21.557
596.66	21.139
597.00	20.668
597.33	20.164
597.67	19.698
598.01	19.210
598.34	18.748
598.68	18.263
599.02	17.759
599.35	17.323
599.69	16.933
600.03	16.461
600.36	16.090
600.70	15.695
601.03	15.358
601.37	15.001
601.71	14.682
602.04	14.328
602.38	14.052
602.72	13.737
603.05	13.484
603.39	13.214
603.72	12.910
604.06	12.594
604.40	12.311
604.73	11.971
605.07	11.712
605.40	11.397
605.74	11.077
606.08	10.797
606.41	10.480
606.75	10.164
607.08	9.858
607.42	9.525
607.75	9.248
608.09	8.933
608.42	8.643
608.76	8.330
609.10	8.029
609.43	7.711
609.77	7.452
610.10	7.163
610.44	6.881
610.77	6.597
611.11	6.296
611.44	6.038
611.78	5.782
612.11	5.529
612.45	5.260
612.78	5.019
613.12	4.803
613.45	4.590
613.79	4.353
614.12	4.147
614.46	3.930
614.79	3.734
615.13	3.592
615.46	3.447
615.79	3.269
616.13	3.111
616.46	2.997
616.80	2.843
617.13	2.739
617.47	2.617
617.80	2.528
618.13	2.405
618.47	2.363
618.80	2.223
619.14	2.173
619.47	2.064
619.81	2.020
620.14	1.955
620.47	1.891
620.81	1.817
621.14	1.771
621.47	1.718
621.81	1.676
622.14	1.630
622.48	1.564
622.81	1.527
623.14	1.491
623.48	1.445
623.81	1.407
624.14	1.392
624.48	1.365
624.81	1.321
625.14	1.286
625.48	1.295
625.81	1.273
626.14	1.267
626.48	1.232
626.81	1.264
627.14	1.242
627.48	1.251
627.81	1.254
628.14	1.311
628.47	1.305
628.81	1.307
629.14	1.314
629.47	1.393
629.81	1.391
630.14	1.456
630.47	1.486
630.80	1.579
631.14	1.620
631.47	1.697
631.80	1.782
