SpectraSuite Data File
++++++++++++++++++++++++++++++++++++
Date: Thu Apr 23 21:14:48 BST 2015
User: mpfc3
Dark Spectrum Present: Yes
Reference Spectrum Present: Yes
Number of Sampled Component Spectra: 1
Spectrometers: USB2E3636
Integration Time (usec): 30000 (USB2E3636)
Spectra Averaged: 100 (USB2E3636)
Boxcar Smoothing: 0 (USB2E3636)
Correct for Electrical Dark: No (USB2E3636)
Strobe/Lamp Enabled: No (USB2E3636)
Correct for Detector Non-linearity: No (USB2E3636)
Correct for Stray Light: No (USB2E3636)
Number of Pixels in Processed Spectrum: 2048
>>>>>Begin Processed Spectral Data<<<<<
180.28	0.000
180.65	413.725
181.02	288.957
181.39	389.076
181.77	852.941
182.14	435.000
182.51	309.942
182.88	601.163
183.25	399.130
183.63	1303.226
184.00	603.750
184.37	534.483
184.74	390.000
185.11	353.333
185.49	1236.842
185.86	219.748
186.23	301.786
186.60	341.447
186.97	287.952
187.35	523.404
187.72	426.364
188.09	755.172
188.46	359.690
188.83	315.436
189.20	-110.853
189.58	-8.526
189.95	-18.939
190.32	-18.767
190.69	-16.206
191.06	-13.521
191.43	-16.794
191.81	-16.748
192.18	-17.787
192.55	-17.842
192.92	-15.603
193.29	-12.630
193.66	-15.109
194.03	-13.108
194.41	-15.933
194.78	-13.812
195.15	-15.693
195.52	-14.046
195.89	-16.288
196.26	-12.500
196.63	-15.538
197.01	-17.961
197.38	-11.423
197.75	-15.055
198.12	-14.331
198.49	-17.986
198.86	-12.244
199.23	-15.447
199.60	-17.660
199.98	-19.081
200.35	-13.955
200.72	-16.676
201.09	-17.370
201.46	-13.827
201.83	-16.845
202.20	-14.462
202.57	-11.021
202.94	-17.477
203.31	-15.720
203.69	-15.470
204.06	-17.943
204.43	-19.358
204.80	-19.989
205.17	-17.992
205.54	-16.120
205.91	-17.778
206.28	-18.130
206.65	-16.730
207.02	-15.889
207.39	-12.986
207.76	-20.203
208.14	-17.228
208.51	-19.012
208.88	-17.752
209.25	-14.513
209.62	-20.414
209.99	-16.089
210.36	-14.454
210.73	-16.245
211.10	-18.281
211.47	-18.852
211.84	-15.349
212.21	-15.129
212.58	-24.867
212.95	-19.772
213.32	-20.690
213.69	-20.838
214.06	-20.408
214.43	-17.278
214.80	-15.839
215.17	-18.353
215.55	-17.802
215.92	-16.873
216.29	-19.624
216.66	-13.317
217.03	-21.967
217.40	-21.085
217.77	-15.912
218.14	-15.913
218.51	-18.987
218.88	-16.626
219.25	-21.948
219.62	-17.445
219.99	-17.888
220.36	-25.033
220.73	-13.832
221.10	-20.165
221.47	-15.389
221.84	-18.746
222.21	-24.583
222.58	-17.040
222.95	-21.216
223.32	-17.570
223.69	-19.375
224.06	-19.426
224.43	-22.371
224.80	-24.639
225.17	-23.327
225.54	-20.013
225.91	-23.133
226.27	-12.054
226.64	-22.502
227.01	-19.987
227.38	-24.406
227.75	-14.815
228.12	-15.349
228.49	-22.061
228.86	-21.470
229.23	-18.414
229.60	-22.640
229.97	-27.928
230.34	-23.202
230.71	-16.948
231.08	-21.396
231.45	-23.748
231.82	-21.110
232.19	-21.614
232.56	-22.162
232.93	-25.296
233.30	-21.764
233.66	-22.191
234.03	-26.989
234.40	-18.382
234.77	-25.551
235.14	-21.012
235.51	-20.822
235.88	-23.158
236.25	-19.903
236.62	-24.495
236.99	-25.071
237.36	-25.229
237.73	-22.658
238.09	-19.415
238.46	-22.585
238.83	-22.968
239.20	-23.382
239.57	-27.219
239.94	-24.014
240.31	-22.271
240.68	-21.985
241.05	-21.887
241.41	-24.063
241.78	-27.144
242.15	-28.442
242.52	-26.846
242.89	-21.547
243.26	-25.965
243.63	-26.570
244.00	-21.219
244.36	-25.054
244.73	-20.029
245.10	-23.897
245.47	-24.760
245.84	-27.039
246.21	-27.487
246.58	-22.788
246.94	-28.123
247.31	-18.012
247.68	-22.096
248.05	-21.372
248.42	-26.457
248.79	-23.105
249.15	-23.498
249.52	-29.193
249.89	-21.578
250.26	-29.747
250.63	-17.257
251.00	-23.357
251.36	-28.549
251.73	-18.940
252.10	-31.741
252.47	-24.584
252.84	-24.751
253.20	-29.759
253.57	-33.062
253.94	-27.673
254.31	-26.999
254.68	-29.091
255.05	-28.816
255.41	-26.253
255.78	-31.006
256.15	-20.293
256.52	-23.701
256.88	-24.902
257.25	-20.521
257.62	-29.147
257.99	-23.962
258.36	-22.727
258.72	-29.050
259.09	-27.380
259.46	-22.463
259.83	-22.188
260.19	-23.203
260.56	-22.713
260.93	-23.478
261.30	-23.384
261.67	-31.387
262.03	-27.023
262.40	-27.791
262.77	-27.038
263.14	-23.212
263.50	-29.469
263.87	-24.174
264.24	-25.123
264.61	-28.678
264.97	-19.640
265.34	-21.855
265.71	-26.813
266.07	-30.042
266.44	-22.937
266.81	-28.463
267.18	-30.497
267.54	-34.158
267.91	-26.010
268.28	-21.753
268.64	-29.851
269.01	-20.321
269.38	-25.953
269.75	-29.914
270.11	-29.564
270.48	-25.755
270.85	-24.205
271.21	-26.672
271.58	-33.697
271.95	-30.934
272.32	-29.926
272.68	-27.164
273.05	-26.689
273.42	-31.548
273.78	-25.441
274.15	-25.846
274.52	-32.867
274.88	-25.394
275.25	-31.350
275.62	-33.628
275.98	-32.196
276.35	-24.738
276.72	-25.446
277.08	-31.169
277.45	-36.704
277.82	-32.010
278.18	-27.273
278.55	-21.260
278.92	-24.439
279.28	-26.026
279.65	-31.306
280.01	-29.388
280.38	-23.058
280.75	-32.247
281.11	-27.341
281.48	-24.485
281.85	-28.952
282.21	-23.469
282.58	-31.795
282.95	-25.712
283.31	-26.112
283.68	-25.881
284.04	-22.657
284.41	-28.289
284.78	-29.024
285.14	-23.269
285.51	-29.865
285.87	-29.694
286.24	-25.309
286.61	-32.856
286.97	-30.776
287.34	-29.156
287.70	-30.602
288.07	-26.320
288.44	-31.119
288.80	-30.439
289.17	-30.986
289.53	-26.481
289.90	-28.238
290.26	-30.936
290.63	-28.053
291.00	-27.346
291.36	-24.019
291.73	-24.453
292.09	-27.402
292.46	-30.195
292.82	-23.506
293.19	-23.673
293.56	-28.463
293.92	-23.534
294.29	-34.909
294.65	-23.101
295.02	-22.467
295.38	-27.984
295.75	-27.809
296.11	-25.168
296.48	-29.712
296.84	-27.885
297.21	-34.539
297.57	-23.258
297.94	-28.535
298.30	-28.863
298.67	-19.438
299.04	-22.767
299.40	-29.426
299.77	-18.113
300.13	-27.113
300.50	-24.819
300.86	-23.543
301.23	-26.522
301.59	-29.299
301.96	-28.125
302.32	-27.410
302.69	-23.932
303.05	-29.421
303.42	-23.775
303.78	-27.236
304.14	-24.167
304.51	-28.271
304.87	-25.097
305.24	-26.182
305.60	-28.839
305.97	-24.670
306.33	-26.702
306.70	-20.374
307.06	-26.063
307.43	-21.547
307.79	-20.877
308.16	-26.124
308.52	-20.855
308.88	-23.831
309.25	-24.830
309.61	-19.745
309.98	-27.154
310.34	-18.872
310.71	-21.940
311.07	-20.364
311.44	-24.726
311.80	-21.543
312.16	-26.801
312.53	-23.170
312.89	-22.070
313.26	-23.083
313.62	-19.439
313.98	-23.977
314.35	-17.651
314.71	-20.833
315.08	-21.474
315.44	-19.122
315.80	-24.173
316.17	-19.191
316.53	-18.675
316.90	-16.910
317.26	-16.792
317.62	-18.236
317.99	-24.315
318.35	-16.449
318.72	-17.978
319.08	-23.072
319.44	-18.591
319.81	-18.046
320.17	-20.282
320.53	-19.334
320.90	-13.845
321.26	-16.726
321.62	-18.893
321.99	-26.773
322.35	-17.640
322.72	-13.526
323.08	-19.785
323.44	-17.899
323.81	-16.174
324.17	-18.176
324.53	-18.244
324.90	-15.732
325.26	-16.469
325.62	-17.187
325.99	-19.467
326.35	-19.801
326.71	-13.055
327.08	-16.570
327.44	-13.662
327.80	-11.698
328.16	-14.002
328.53	-15.940
328.89	-15.580
329.25	-17.576
329.62	-12.479
329.98	-12.919
330.34	-12.356
330.71	-14.777
331.07	-11.607
331.43	-11.283
331.79	-12.172
332.16	-10.464
332.52	-10.333
332.88	-12.295
333.24	-9.720
333.61	-14.401
333.97	-11.210
334.33	-11.904
334.70	-10.524
335.06	-7.466
335.42	-12.776
335.78	-10.647
336.15	-11.715
336.51	-11.399
336.87	-8.997
337.23	-7.925
337.60	-11.176
337.96	-9.691
338.32	-10.778
338.68	-9.144
339.04	-6.840
339.41	-9.741
339.77	-7.499
340.13	-8.298
340.49	-10.046
340.86	-7.978
341.22	-10.724
341.58	-10.375
341.94	-7.861
342.30	-8.547
342.67	-7.357
343.03	-7.118
343.39	-8.284
343.75	-7.199
344.11	-6.364
344.48	-6.278
344.84	-6.036
345.20	-6.696
345.56	-4.555
345.92	-8.682
346.28	-5.787
346.65	-5.215
347.01	-6.835
347.37	-6.231
347.73	-6.315
348.09	-6.181
348.45	-4.454
348.82	-4.562
349.18	-5.414
349.54	-4.282
349.90	-4.473
350.26	-5.100
350.62	-3.771
350.98	-5.058
351.35	-3.481
351.71	-4.771
352.07	-4.505
352.43	-4.121
352.79	-4.404
353.15	-2.973
353.51	-4.897
353.87	-4.497
354.24	-3.460
354.60	-5.430
354.96	-3.905
355.32	-4.308
355.68	-5.219
356.04	-3.616
356.40	-3.805
356.76	-5.176
357.12	-4.322
357.48	-2.992
357.85	-3.983
358.21	-3.755
358.57	-3.735
358.93	-3.369
359.29	-3.630
359.65	-3.349
360.01	-2.971
360.37	-3.520
360.73	-4.326
361.09	-3.062
361.45	-2.682
361.81	-3.202
362.17	-3.140
362.53	-3.084
362.89	-2.975
363.25	-3.280
363.62	-2.935
363.98	-2.371
364.34	-2.720
364.70	-3.525
365.06	-2.208
365.42	-2.157
365.78	-2.004
366.14	-2.579
366.50	-2.148
366.86	-2.264
367.22	-2.277
367.58	-2.900
367.94	-1.648
368.30	-1.848
368.66	-1.512
369.02	-2.088
369.38	-1.176
369.74	-2.261
370.10	-1.364
370.46	-1.295
370.82	-2.071
371.18	-1.447
371.54	-2.007
371.90	-0.619
372.26	-1.678
372.62	-1.628
372.98	-1.226
373.33	-1.782
373.69	-1.479
374.05	-0.867
374.41	-1.249
374.77	-1.537
375.13	-1.301
375.49	-0.822
375.85	-1.073
376.21	-1.151
376.57	-1.032
376.93	-0.757
377.29	-0.771
377.65	-0.766
378.01	-0.658
378.37	-0.514
378.73	-0.676
379.08	-0.228
379.44	-0.358
379.80	-0.267
380.16	0.008
380.52	0.118
380.88	-0.248
381.24	0.264
381.60	0.226
381.96	-0.502
382.32	0.348
382.67	0.249
383.03	0.220
383.39	-0.144
383.75	0.824
384.11	0.177
384.47	0.551
384.83	0.422
385.19	0.879
385.54	0.644
385.90	0.723
386.26	1.188
386.62	1.219
386.98	1.086
387.34	1.059
387.70	0.994
388.05	1.111
388.41	1.929
388.77	1.869
389.13	1.787
389.49	1.724
389.85	1.885
390.20	2.391
390.56	2.651
390.92	2.204
391.28	2.402
391.64	2.550
391.99	2.660
392.35	2.598
392.71	3.018
393.07	2.661
393.43	3.071
393.78	2.861
394.14	3.229
394.50	3.449
394.86	3.615
395.22	3.700
395.57	3.826
395.93	3.982
396.29	3.953
396.65	3.560
397.00	4.158
397.36	4.437
397.72	4.404
398.08	4.225
398.43	4.597
398.79	4.814
399.15	4.624
399.51	4.860
399.86	5.212
400.22	5.201
400.58	5.153
400.94	5.255
401.29	4.861
401.65	5.311
402.01	5.661
402.37	5.785
402.72	5.911
403.08	6.394
403.44	6.176
403.79	6.269
404.15	6.109
404.51	6.173
404.86	6.607
405.22	6.445
405.58	6.716
405.94	6.624
406.29	6.866
406.65	6.912
407.01	7.223
407.36	7.053
407.72	7.566
408.08	7.537
408.43	7.416
408.79	7.698
409.15	7.662
409.50	7.986
409.86	7.890
410.22	7.831
410.57	8.230
410.93	8.483
411.29	8.481
411.64	8.466
412.00	8.585
412.35	8.753
412.71	8.896
413.07	9.147
413.42	9.077
413.78	9.073
414.14	9.498
414.49	9.511
414.85	9.419
415.20	9.676
415.56	9.714
415.92	9.643
416.27	9.985
416.63	10.098
416.98	10.270
417.34	10.403
417.70	10.500
418.05	10.473
418.41	10.731
418.76	10.627
419.12	10.742
419.47	10.864
419.83	11.034
420.19	11.073
420.54	11.252
420.90	11.388
421.25	11.324
421.61	11.644
421.96	11.446
422.32	11.729
422.67	11.690
423.03	11.944
423.39	12.025
423.74	11.994
424.10	12.096
424.45	12.386
424.81	12.250
425.16	12.459
425.52	12.475
425.87	12.743
426.23	12.765
426.58	12.935
426.94	12.716
427.29	13.191
427.65	13.027
428.00	13.344
428.36	13.460
428.71	13.578
429.07	13.578
429.42	13.681
429.78	13.721
430.13	13.959
430.49	14.007
430.84	14.145
431.19	14.047
431.55	14.428
431.90	14.532
432.26	14.467
432.61	14.448
432.97	14.773
433.32	14.882
433.68	14.759
434.03	14.969
434.39	15.172
434.74	15.144
435.09	15.052
435.45	15.222
435.80	15.380
436.16	15.358
436.51	15.496
436.86	15.569
437.22	15.662
437.57	15.728
437.93	15.861
438.28	15.952
438.63	16.025
438.99	16.089
439.34	16.271
439.70	16.298
440.05	16.370
440.40	16.389
440.76	16.505
441.11	16.672
441.47	16.639
441.82	16.716
442.17	16.907
442.53	16.864
442.88	16.947
443.23	17.166
443.59	17.141
443.94	17.205
444.29	17.347
444.65	17.515
445.00	17.515
445.35	17.523
445.71	17.634
446.06	17.649
446.41	17.872
446.77	17.709
447.12	17.821
447.47	18.057
447.83	18.186
448.18	18.277
448.53	18.285
448.89	18.350
449.24	18.410
449.59	18.468
449.94	18.654
450.30	18.744
450.65	18.756
451.00	18.822
451.36	18.854
451.71	19.012
452.06	19.062
452.41	19.208
452.77	19.264
453.12	19.378
453.47	19.363
453.82	19.629
454.18	19.593
454.53	19.799
454.88	19.769
455.23	19.913
455.59	19.949
455.94	20.038
456.29	20.074
456.64	20.125
457.00	20.180
457.35	20.456
457.70	20.462
458.05	20.517
458.40	20.547
458.76	20.804
459.11	20.657
459.46	20.810
459.81	20.930
460.16	21.068
460.52	20.908
460.87	21.129
461.22	21.208
461.57	21.278
461.92	21.308
462.28	21.479
462.63	21.419
462.98	21.605
463.33	21.637
463.68	21.817
464.03	21.874
464.38	21.892
464.74	21.895
465.09	21.994
465.44	22.096
465.79	22.168
466.14	22.187
466.49	22.260
466.84	22.329
467.20	22.464
467.55	22.477
467.90	22.604
468.25	22.508
468.60	22.660
468.95	22.683
469.30	22.806
469.65	22.818
470.00	22.897
470.36	22.911
470.71	22.979
471.06	23.005
471.41	23.126
471.76	23.143
472.11	23.240
472.46	23.181
472.81	23.210
473.16	23.277
473.51	23.383
473.86	23.379
474.21	23.429
474.56	23.340
474.91	23.427
475.26	23.472
475.62	23.507
475.97	23.502
476.32	23.526
476.67	23.498
477.02	23.530
477.37	23.626
477.72	23.647
478.07	23.604
478.42	23.657
478.77	23.598
479.12	23.627
479.47	23.616
479.82	23.678
480.17	23.693
480.52	23.602
480.87	23.596
481.22	23.729
481.57	23.695
481.92	23.680
482.27	23.710
482.62	23.702
482.97	23.665
483.32	23.672
483.67	23.804
484.02	23.683
484.36	23.696
484.71	23.692
485.06	23.752
485.41	23.702
485.76	23.790
486.11	23.787
486.46	23.831
486.81	23.884
487.16	23.918
487.51	23.970
487.86	23.924
488.21	24.031
488.56	24.097
488.91	24.113
489.25	24.231
489.60	24.223
489.95	24.308
490.30	24.421
490.65	24.425
491.00	24.478
491.35	24.574
491.70	24.617
492.05	24.645
492.39	24.751
492.74	24.825
493.09	24.888
493.44	24.902
493.79	24.913
494.14	25.088
494.49	25.109
494.83	25.192
495.18	25.276
495.53	25.309
495.88	25.369
496.23	25.536
496.58	25.496
496.92	25.553
497.27	25.762
497.62	25.792
497.97	25.742
498.32	25.891
498.67	25.967
499.01	26.065
499.36	26.083
499.71	26.139
500.06	26.196
500.41	26.292
500.75	26.276
501.10	26.400
501.45	26.484
501.80	26.517
502.14	26.519
502.49	26.544
502.84	26.639
503.19	26.759
503.53	26.751
503.88	26.771
504.23	26.805
504.58	26.776
504.92	26.949
505.27	26.885
505.62	26.895
505.97	26.999
506.31	27.030
506.66	27.057
507.01	27.080
507.36	27.038
507.70	27.062
508.05	27.048
508.40	27.082
508.74	27.027
509.09	27.029
509.44	27.051
509.79	27.009
510.13	26.910
510.48	26.911
510.83	26.957
511.17	26.929
511.52	26.928
511.87	26.885
512.21	26.930
512.56	26.845
512.91	26.826
513.25	26.921
513.60	26.962
513.95	27.000
514.29	27.017
514.64	27.030
514.98	27.040
515.33	27.124
515.68	27.154
516.02	27.217
516.37	27.315
516.72	27.311
517.06	27.283
517.41	27.383
517.75	27.352
518.10	27.413
518.45	27.373
518.79	27.500
519.14	27.439
519.48	27.508
519.83	27.535
520.18	27.509
520.52	27.578
520.87	27.614
521.21	27.606
521.56	27.568
521.90	27.596
522.25	27.530
522.60	27.512
522.94	27.512
523.29	27.605
523.63	27.547
523.98	27.519
524.32	27.520
524.67	27.527
525.01	27.452
525.36	27.432
525.70	27.375
526.05	27.409
526.39	27.376
526.74	27.267
527.08	27.243
527.43	27.205
527.77	27.174
528.12	27.083
528.46	27.037
528.81	26.926
529.15	26.915
529.50	26.817
529.84	26.699
530.19	26.674
530.53	26.554
530.88	26.353
531.22	26.317
531.57	26.248
531.91	26.174
532.26	25.971
532.60	25.882
532.94	25.684
533.29	25.541
533.63	25.397
533.98	25.306
534.32	25.113
534.67	24.973
535.01	24.750
535.35	24.575
535.70	24.393
536.04	24.204
536.39	24.019
536.73	23.786
537.07	23.597
537.42	23.491
537.76	23.243
538.11	23.133
538.45	22.925
538.79	22.703
539.14	22.537
539.48	22.398
539.82	22.211
540.17	22.031
540.51	21.840
540.85	21.731
541.20	21.548
541.54	21.365
541.89	21.271
542.23	21.194
542.57	21.082
542.92	20.953
543.26	20.855
543.60	20.804
543.94	20.731
544.29	20.703
544.63	20.552
544.97	20.588
545.32	20.553
545.66	20.522
546.00	20.514
546.35	20.544
546.69	20.468
547.03	20.564
547.37	20.551
547.72	20.558
548.06	20.555
548.40	20.612
548.75	20.689
549.09	20.712
549.43	20.762
549.77	20.855
550.12	20.927
550.46	21.014
550.80	21.070
551.14	21.206
551.49	21.244
551.83	21.415
552.17	21.548
552.51	21.675
552.85	21.766
553.20	21.893
553.54	22.147
553.88	22.266
554.22	22.422
554.56	22.642
554.91	22.890
555.25	23.004
555.59	23.214
555.93	23.470
556.27	23.643
556.62	23.845
556.96	24.116
557.30	24.269
557.64	24.480
557.98	24.785
558.32	24.964
558.67	25.139
559.01	25.435
559.35	25.571
559.69	25.856
560.03	26.062
560.37	26.223
560.71	26.552
561.05	26.752
561.40	26.801
561.74	27.107
562.08	27.254
562.42	27.416
562.76	27.653
563.10	27.875
563.44	27.977
563.78	28.069
564.12	28.266
564.46	28.387
564.81	28.532
565.15	28.630
565.49	28.755
565.83	28.845
566.17	28.952
566.51	29.004
566.85	29.115
567.19	29.205
567.53	29.291
567.87	29.359
568.21	29.397
568.55	29.360
568.89	29.438
569.23	29.460
569.57	29.457
569.91	29.442
570.25	29.425
570.59	29.483
570.93	29.369
571.27	29.411
571.61	29.316
571.95	29.266
572.29	29.258
572.63	29.188
572.97	29.106
573.31	29.127
573.65	29.010
573.99	28.987
574.33	28.872
574.67	28.779
575.01	28.573
575.35	28.579
575.69	28.452
576.03	28.379
576.37	28.221
576.71	28.125
577.05	27.978
577.39	27.866
577.73	27.732
578.06	27.534
578.40	27.449
578.74	27.223
579.08	27.044
579.42	26.954
579.76	26.794
580.10	26.612
580.44	26.420
580.78	26.241
581.12	26.075
581.45	25.849
581.79	25.726
582.13	25.531
582.47	25.361
582.81	25.193
583.15	25.031
583.49	24.885
583.83	24.774
584.16	24.540
584.50	24.401
584.84	24.331
585.18	24.094
585.52	24.031
585.86	23.881
586.19	23.728
586.53	23.671
586.87	23.513
587.21	23.384
587.55	23.139
587.88	23.043
588.22	22.960
588.56	22.713
588.90	22.553
589.24	22.337
589.57	22.182
589.91	22.010
590.25	21.831
590.59	21.661
590.92	21.481
591.26	21.299
591.60	21.080
591.94	20.862
592.27	20.643
592.61	20.379
592.95	20.162
593.29	19.920
593.62	19.685
593.96	19.426
594.30	19.118
594.64	18.857
594.97	18.549
595.31	18.199
595.65	17.886
595.98	17.535
596.32	17.192
596.66	16.809
597.00	16.464
597.33	16.034
597.67	15.630
598.01	15.218
598.34	14.808
598.68	14.500
599.02	14.110
599.35	13.722
599.69	13.337
600.03	13.055
600.36	12.720
600.70	12.382
601.03	12.079
601.37	11.841
601.71	11.583
602.04	11.286
602.38	11.025
602.72	10.782
603.05	10.550
603.39	10.334
603.72	10.104
604.06	9.846
604.40	9.641
604.73	9.376
605.07	9.163
605.40	8.924
605.74	8.673
606.08	8.405
606.41	8.182
606.75	7.907
607.08	7.715
607.42	7.452
607.75	7.230
608.09	7.000
608.42	6.762
608.76	6.549
609.10	6.278
609.43	6.057
609.77	5.825
610.10	5.597
610.44	5.378
610.77	5.153
611.11	4.944
611.44	4.728
611.78	4.509
612.11	4.324
612.45	4.120
612.78	3.934
613.12	3.753
613.45	3.584
613.79	3.418
614.12	3.240
614.46	3.090
614.79	2.966
615.13	2.797
615.46	2.673
615.79	2.553
616.13	2.407
616.46	2.313
616.80	2.190
617.13	2.112
617.47	2.026
617.80	1.962
618.13	1.892
618.47	1.799
618.80	1.760
619.14	1.688
619.47	1.601
619.81	1.593
620.14	1.514
620.47	1.481
620.81	1.434
621.14	1.392
621.47	1.351
621.81	1.300
622.14	1.244
622.48	1.221
622.81	1.193
623.14	1.159
623.48	1.147
623.81	1.102
624.14	1.071
624.48	1.082
624.81	1.047
625.14	1.039
625.48	1.032
625.81	1.010
626.14	1.005
626.48	1.019
626.81	0.994
627.14	1.005
627.48	1.010
627.81	1.018
628.14	1.031
628.47	1.024
628.81	1.062
629.14	1.087
629.47	1.116
629.81	1.149
630.14	1.189
630.47	1.221
630.80	1.301
631.14	1.323
631.47	1.360
631.80	1.467
632.13	1.506
632.47	1.594
632.80	1.663
