SpectraSuite Data File
++++++++++++++++++++++++++++++++++++
Date: Thu Apr 23 21:20:57 BST 2015
User: mpfc3
Dark Spectrum Present: Yes
Reference Spectrum Present: Yes
Number of Sampled Component Spectra: 1
Spectrometers: USB2E3636
Integration Time (usec): 30000 (USB2E3636)
Spectra Averaged: 100 (USB2E3636)
Boxcar Smoothing: 0 (USB2E3636)
Correct for Electrical Dark: No (USB2E3636)
Strobe/Lamp Enabled: No (USB2E3636)
Correct for Detector Non-linearity: No (USB2E3636)
Correct for Stray Light: No (USB2E3636)
Number of Pixels in Processed Spectrum: 2048
>>>>>Begin Processed Spectral Data<<<<<
180.28	0.000
180.65	651.961
181.02	417.791
181.39	598.319
181.77	1298.039
182.14	565.000
182.51	464.327
182.88	795.349
183.25	573.913
183.63	2083.871
184.00	835.000
184.37	786.207
184.74	600.000
185.11	503.704
185.49	1694.737
185.86	342.857
186.23	445.238
186.60	467.763
186.97	426.506
187.35	751.064
187.72	590.909
188.09	1125.862
188.46	549.612
188.83	479.195
189.20	-171.318
189.58	-23.368
189.95	-26.623
190.32	-29.095
190.69	-27.489
191.06	-26.564
191.43	-30.853
191.81	-27.823
192.18	-27.549
192.55	-29.393
192.92	-27.346
193.29	-28.007
193.66	-26.304
194.03	-27.590
194.41	-29.936
194.78	-27.352
195.15	-27.056
195.52	-28.579
195.89	-31.634
196.26	-25.585
196.63	-25.354
197.01	-30.523
197.38	-25.493
197.75	-24.098
198.12	-26.360
198.49	-32.240
198.86	-28.964
199.23	-27.664
199.60	-30.960
199.98	-28.376
200.35	-25.647
200.72	-28.920
201.09	-28.327
201.46	-27.655
201.83	-27.039
202.20	-27.799
202.57	-27.199
202.94	-26.379
203.31	-26.130
203.69	-26.711
204.06	-32.112
204.43	-30.033
204.80	-31.125
205.17	-32.309
205.54	-30.340
205.91	-31.054
206.28	-30.765
206.65	-27.233
207.02	-28.167
207.39	-28.246
207.76	-28.644
208.14	-30.808
208.51	-30.672
208.88	-27.824
209.25	-28.202
209.62	-32.959
209.99	-31.061
210.36	-28.796
210.73	-26.869
211.10	-28.431
211.47	-33.899
211.84	-27.558
212.21	-31.691
212.58	-34.082
212.95	-30.977
213.32	-36.056
213.69	-33.111
214.06	-33.313
214.43	-29.822
214.80	-30.556
215.17	-30.941
215.55	-32.106
215.92	-30.088
216.29	-31.473
216.66	-33.115
217.03	-33.313
217.40	-33.909
217.77	-30.632
218.14	-31.474
218.51	-35.104
218.88	-31.773
219.25	-34.636
219.62	-30.713
219.99	-32.479
220.36	-42.288
220.73	-27.369
221.10	-34.288
221.47	-29.015
221.84	-32.054
222.21	-38.832
222.58	-30.597
222.95	-34.181
223.32	-34.953
223.69	-37.094
224.06	-32.986
224.43	-33.397
224.80	-35.480
225.17	-36.050
225.54	-32.760
225.91	-37.933
226.27	-30.166
226.64	-38.040
227.01	-31.454
227.38	-40.280
227.75	-31.034
228.12	-31.225
228.49	-37.552
228.86	-34.808
229.23	-34.273
229.60	-38.782
229.97	-46.246
230.34	-36.296
230.71	-33.506
231.08	-38.315
231.45	-40.054
231.82	-39.648
232.19	-32.627
232.56	-36.778
232.93	-38.258
233.30	-34.707
233.66	-40.499
234.03	-44.673
234.40	-36.898
234.77	-43.319
235.14	-39.213
235.51	-35.765
235.88	-42.035
236.25	-37.864
236.62	-36.047
236.99	-45.326
237.36	-40.169
237.73	-38.780
238.09	-38.483
238.46	-40.087
238.83	-37.244
239.20	-41.823
239.57	-43.800
239.94	-39.068
240.31	-39.233
240.68	-43.162
241.05	-40.973
241.41	-38.040
241.78	-41.834
242.15	-44.996
242.52	-48.462
242.89	-39.913
243.26	-45.117
243.63	-41.516
244.00	-39.068
244.36	-42.310
244.73	-39.914
245.10	-34.485
245.47	-45.233
245.84	-40.861
246.21	-49.203
246.58	-40.855
246.94	-43.833
247.31	-36.095
247.68	-35.068
248.05	-38.628
248.42	-42.638
248.79	-37.454
249.15	-40.986
249.52	-47.152
249.89	-41.145
250.26	-42.484
250.63	-39.714
251.00	-41.531
251.36	-45.678
251.73	-37.083
252.10	-51.903
252.47	-44.100
252.84	-41.686
253.20	-44.289
253.57	-54.642
253.94	-47.013
254.31	-41.012
254.68	-43.399
255.05	-51.673
255.41	-43.039
255.78	-47.646
256.15	-41.204
256.52	-43.858
256.88	-45.497
257.25	-37.519
257.62	-46.998
257.99	-45.654
258.36	-36.834
258.72	-45.730
259.09	-47.443
259.46	-42.835
259.83	-40.109
260.19	-41.562
260.56	-42.508
260.93	-43.874
261.30	-44.773
261.67	-48.223
262.03	-43.786
262.40	-40.593
262.77	-47.179
263.14	-39.498
263.50	-45.306
263.87	-48.187
264.24	-45.074
264.61	-44.132
264.97	-41.154
265.34	-40.487
265.71	-47.808
266.07	-44.937
266.44	-44.762
266.81	-49.155
267.18	-49.789
267.54	-48.845
267.91	-44.992
268.28	-41.514
268.64	-48.425
269.01	-35.218
269.38	-43.309
269.75	-48.966
270.11	-48.157
270.48	-43.372
270.85	-43.847
271.21	-43.144
271.58	-46.387
271.95	-46.187
272.32	-45.095
272.68	-44.003
273.05	-51.626
273.42	-47.534
273.78	-47.187
274.15	-46.573
274.52	-51.486
274.88	-47.054
275.25	-48.449
275.62	-52.604
275.98	-57.830
276.35	-42.466
276.72	-44.733
277.08	-43.994
277.45	-54.490
277.82	-46.485
278.18	-46.110
278.55	-39.921
278.92	-39.663
279.28	-43.596
279.65	-43.877
280.01	-42.694
280.38	-45.207
280.75	-50.172
281.11	-47.742
281.48	-41.204
281.85	-46.506
282.21	-44.232
282.58	-51.091
282.95	-43.043
283.31	-41.795
283.68	-41.186
284.04	-42.461
284.41	-46.382
284.78	-44.787
285.14	-38.808
285.51	-49.239
285.87	-44.003
286.24	-43.611
286.61	-51.896
286.97	-50.828
287.34	-47.786
287.70	-46.906
288.07	-41.755
288.44	-45.332
288.80	-46.088
289.17	-45.982
289.53	-42.640
289.90	-46.903
290.26	-50.520
290.63	-46.122
291.00	-40.534
291.36	-43.235
291.73	-40.729
292.09	-43.525
292.46	-43.427
292.82	-42.973
293.19	-44.245
293.56	-45.101
293.92	-47.069
294.29	-49.751
294.65	-39.702
295.02	-36.842
295.38	-41.152
295.75	-42.037
296.11	-49.161
296.48	-41.317
296.84	-43.471
297.21	-48.751
297.57	-40.799
297.94	-46.128
298.30	-44.726
298.67	-38.095
299.04	-42.719
299.40	-46.633
299.77	-39.498
300.13	-42.504
300.50	-43.293
300.86	-39.213
301.23	-44.551
301.59	-48.664
301.96	-46.299
302.32	-47.809
302.69	-39.083
303.05	-45.640
303.42	-42.410
303.78	-42.173
304.14	-40.000
304.51	-49.031
304.87	-40.976
305.24	-41.110
305.60	-43.648
305.97	-41.703
306.33	-39.561
306.70	-34.917
307.06	-47.008
307.43	-35.135
307.79	-43.722
308.16	-44.341
308.52	-40.735
308.88	-39.347
309.25	-40.802
309.61	-38.138
309.98	-42.923
310.34	-32.176
310.71	-36.493
311.07	-35.345
311.44	-42.086
311.80	-38.428
312.16	-45.314
312.53	-36.389
312.89	-35.155
313.26	-42.481
313.62	-41.263
313.98	-42.178
314.35	-31.967
314.71	-32.847
315.08	-37.544
315.44	-35.411
315.80	-35.854
316.17	-34.339
316.53	-28.013
316.90	-34.019
317.26	-30.514
317.62	-32.785
317.99	-37.007
318.35	-34.726
318.72	-27.421
319.08	-41.407
319.44	-29.378
319.81	-32.670
320.17	-32.182
320.53	-34.315
320.90	-30.895
321.26	-32.318
321.62	-29.964
321.99	-37.380
322.35	-34.367
322.72	-29.884
323.08	-31.799
323.44	-30.869
323.81	-33.333
324.17	-31.228
324.53	-30.235
324.90	-28.224
325.26	-28.919
325.62	-25.128
325.99	-32.445
326.35	-27.579
326.71	-29.090
327.08	-25.622
327.44	-28.571
327.80	-22.162
328.16	-24.086
328.53	-29.895
328.89	-27.182
329.25	-28.332
329.62	-20.470
329.98	-22.619
330.34	-24.020
330.71	-23.451
331.07	-24.483
331.43	-17.614
331.79	-21.505
332.16	-19.156
332.52	-20.919
332.88	-24.012
333.24	-20.901
333.61	-22.660
333.97	-21.741
334.33	-20.872
334.70	-19.368
335.06	-19.136
335.42	-20.771
335.78	-20.938
336.15	-20.985
336.51	-19.291
336.87	-15.938
337.23	-17.714
337.60	-18.420
337.96	-17.501
338.32	-18.336
338.68	-15.390
339.04	-15.735
339.41	-20.069
339.77	-13.776
340.13	-15.028
340.49	-16.776
340.86	-14.696
341.22	-16.505
341.58	-17.388
341.94	-15.258
342.30	-14.988
342.67	-15.259
343.03	-13.059
343.39	-14.151
343.75	-12.714
344.11	-12.699
344.48	-12.223
344.84	-13.258
345.20	-14.453
345.56	-11.725
345.92	-14.505
346.28	-11.935
346.65	-11.036
347.01	-11.639
347.37	-12.109
347.73	-10.533
348.09	-11.715
348.45	-9.571
348.82	-8.822
349.18	-9.805
349.54	-10.750
349.90	-9.105
350.26	-11.284
350.62	-9.537
350.98	-9.634
351.35	-8.990
351.71	-10.948
352.07	-9.137
352.43	-9.063
352.79	-9.402
353.15	-8.252
353.51	-8.511
353.87	-9.509
354.24	-8.543
354.60	-8.116
354.96	-6.645
355.32	-8.616
355.68	-8.316
356.04	-7.016
356.40	-7.237
356.76	-8.467
357.12	-6.901
357.48	-7.852
357.85	-7.432
358.21	-7.476
358.57	-6.677
358.93	-6.461
359.29	-7.212
359.65	-6.891
360.01	-6.400
360.37	-6.483
360.73	-6.970
361.09	-6.425
361.45	-6.893
361.81	-6.212
362.17	-6.192
362.53	-5.408
362.89	-6.351
363.25	-6.322
363.62	-7.420
363.98	-5.497
364.34	-5.804
364.70	-5.512
365.06	-4.938
365.42	-4.470
365.78	-4.781
366.14	-5.324
366.50	-5.054
366.86	-5.413
367.22	-5.097
367.58	-5.461
367.94	-4.020
368.30	-4.328
368.66	-4.815
369.02	-4.028
369.38	-4.397
369.74	-3.582
370.10	-4.024
370.46	-3.832
370.82	-3.797
371.18	-3.798
371.54	-4.258
371.90	-3.509
372.26	-3.826
372.62	-4.040
372.98	-3.329
373.33	-3.314
373.69	-3.544
374.05	-2.812
374.41	-3.379
374.77	-3.443
375.13	-3.629
375.49	-2.439
375.85	-3.403
376.21	-2.769
376.57	-2.666
376.93	-3.212
377.29	-2.756
377.65	-2.505
378.01	-2.288
378.37	-2.486
378.73	-2.622
379.08	-1.836
379.44	-2.125
379.80	-2.523
380.16	-1.659
380.52	-1.767
380.88	-2.072
381.24	-2.106
381.60	-1.511
381.96	-1.552
382.32	-1.875
382.67	-0.960
383.03	-1.624
383.39	-0.850
383.75	-0.731
384.11	-0.936
384.47	-1.011
384.83	-1.038
385.19	-0.673
385.54	-1.112
385.90	-0.804
386.26	-0.661
386.62	-0.404
386.98	-0.163
387.34	-0.407
387.70	-0.064
388.05	0.058
388.41	0.614
388.77	0.376
389.13	0.539
389.49	0.524
389.85	0.515
390.20	1.201
390.56	1.308
390.92	1.232
391.28	1.247
391.64	1.598
391.99	1.259
392.35	1.524
392.71	1.879
393.07	1.735
393.43	2.170
393.78	1.824
394.14	2.469
394.50	2.413
394.86	2.702
395.22	2.489
395.57	2.630
395.93	3.050
396.29	3.042
396.65	2.994
397.00	3.592
397.36	3.581
397.72	3.372
398.08	3.835
398.43	3.909
398.79	4.405
399.15	4.062
399.51	4.388
399.86	4.168
400.22	4.524
400.58	4.450
400.94	4.687
401.29	4.402
401.65	4.747
402.01	5.296
402.37	5.255
402.72	5.001
403.08	5.546
403.44	5.414
403.79	5.399
404.15	5.675
404.51	5.667
404.86	6.198
405.22	6.155
405.58	5.984
405.94	6.516
406.29	6.491
406.65	6.750
407.01	6.496
407.36	6.816
407.72	7.072
408.08	6.970
408.43	7.237
408.79	7.477
409.15	7.254
409.50	7.544
409.86	7.523
410.22	7.917
410.57	8.027
410.93	8.202
411.29	8.286
411.64	8.317
412.00	8.388
412.35	8.291
412.71	8.714
413.07	8.913
413.42	9.005
413.78	8.970
414.14	9.230
414.49	9.255
414.85	9.365
415.20	9.582
415.56	9.771
415.92	9.403
416.27	9.744
416.63	9.853
416.98	10.098
417.34	10.412
417.70	10.376
418.05	10.572
418.41	10.688
418.76	10.889
419.12	10.717
419.47	11.172
419.83	11.233
420.19	11.439
420.54	11.556
420.90	11.331
421.25	11.572
421.61	11.992
421.96	11.465
422.32	12.023
422.67	11.898
423.03	12.213
423.39	12.182
423.74	12.494
424.10	12.556
424.45	12.500
424.81	12.576
425.16	12.826
425.52	12.819
425.87	13.044
426.23	13.105
426.58	13.106
426.94	13.174
427.29	13.436
427.65	13.457
428.00	13.602
428.36	13.839
428.71	13.879
429.07	14.087
429.42	14.079
429.78	14.090
430.13	14.291
430.49	14.505
430.84	14.601
431.19	14.621
431.55	14.661
431.90	14.781
432.26	14.903
432.61	15.072
432.97	15.137
433.32	15.362
433.68	15.426
434.03	15.466
434.39	15.801
434.74	15.723
435.09	15.722
435.45	15.672
435.80	15.838
436.16	15.986
436.51	16.106
436.86	16.247
437.22	16.390
437.57	16.512
437.93	16.592
438.28	16.673
438.63	16.628
438.99	16.829
439.34	16.820
439.70	17.019
440.05	16.915
440.40	16.993
440.76	17.234
441.11	17.175
441.47	17.381
441.82	17.433
442.17	17.381
442.53	17.635
442.88	17.779
443.23	17.918
443.59	17.952
443.94	18.112
444.29	18.026
444.65	18.311
445.00	18.322
445.35	18.344
445.71	18.480
446.06	18.617
446.41	18.663
446.77	18.607
447.12	18.808
447.47	19.159
447.83	19.040
448.18	19.191
448.53	19.132
448.89	19.206
449.24	19.427
449.59	19.395
449.94	19.485
450.30	19.663
450.65	19.699
451.00	19.883
451.36	19.854
451.71	19.855
452.06	20.009
452.41	20.093
452.77	20.318
453.12	20.252
453.47	20.483
453.82	20.675
454.18	20.641
454.53	20.723
454.88	20.787
455.23	20.998
455.59	20.860
455.94	21.014
456.29	21.200
456.64	21.119
457.00	21.362
457.35	21.411
457.70	21.483
458.05	21.599
458.40	21.754
458.76	21.811
459.11	21.798
459.46	21.849
459.81	21.974
460.16	22.043
460.52	22.179
460.87	22.375
461.22	22.238
461.57	22.424
461.92	22.425
462.28	22.663
462.63	22.657
462.98	22.743
463.33	22.774
463.68	22.845
464.03	22.855
464.38	23.033
464.74	23.016
465.09	23.181
465.44	23.266
465.79	23.298
466.14	23.440
466.49	23.435
466.84	23.480
467.20	23.589
467.55	23.682
467.90	23.859
468.25	23.909
468.60	23.890
468.95	23.913
469.30	23.921
469.65	24.066
470.00	24.101
470.36	24.156
470.71	24.147
471.06	24.174
471.41	24.340
471.76	24.394
472.11	24.519
472.46	24.505
472.81	24.580
473.16	24.562
473.51	24.684
473.86	24.679
474.21	24.767
474.56	24.670
474.91	24.756
475.26	24.812
475.62	24.787
475.97	24.798
476.32	24.840
476.67	24.855
477.02	24.899
477.37	24.971
477.72	24.997
478.07	25.014
478.42	24.985
478.77	24.923
479.12	24.945
479.47	25.061
479.82	24.955
480.17	25.013
480.52	24.995
480.87	24.996
481.22	25.086
481.57	25.061
481.92	25.048
482.27	25.079
482.62	25.131
482.97	25.065
483.32	25.134
483.67	25.104
484.02	25.096
484.36	25.150
484.71	25.126
485.06	25.171
485.41	25.140
485.76	25.245
486.11	25.306
486.46	25.261
486.81	25.321
487.16	25.293
487.51	25.405
487.86	25.453
488.21	25.536
488.56	25.627
488.91	25.550
489.25	25.634
489.60	25.675
489.95	25.802
490.30	25.948
490.65	25.928
491.00	25.923
491.35	26.061
491.70	26.106
492.05	26.177
492.39	26.319
492.74	26.319
493.09	26.387
493.44	26.478
493.79	26.525
494.14	26.614
494.49	26.639
494.83	26.815
495.18	26.912
495.53	26.942
495.88	26.926
496.23	27.097
496.58	27.092
496.92	27.183
497.27	27.309
497.62	27.412
497.97	27.405
498.32	27.475
498.67	27.581
499.01	27.712
499.36	27.762
499.71	27.798
500.06	27.892
500.41	27.961
500.75	27.973
501.10	28.096
501.45	28.115
501.80	28.158
502.14	28.249
502.49	28.362
502.84	28.425
503.19	28.495
503.53	28.523
503.88	28.483
504.23	28.604
504.58	28.585
504.92	28.672
505.27	28.750
505.62	28.755
505.97	28.815
506.31	28.856
506.66	28.914
507.01	28.881
507.36	28.917
507.70	28.926
508.05	28.930
508.40	28.955
508.74	28.908
509.09	28.866
509.44	28.953
509.79	28.965
510.13	28.832
510.48	28.821
510.83	28.796
511.17	28.769
511.52	28.812
511.87	28.748
512.21	28.794
512.56	28.728
512.91	28.758
513.25	28.796
513.60	28.790
513.95	28.783
514.29	28.867
514.64	28.906
514.98	28.918
515.33	28.990
515.68	29.066
516.02	29.083
516.37	29.061
516.72	29.156
517.06	29.163
517.41	29.236
517.75	29.271
518.10	29.240
518.45	29.311
518.79	29.361
519.14	29.371
519.48	29.380
519.83	29.349
520.18	29.386
520.52	29.418
520.87	29.417
521.21	29.423
521.56	29.498
521.90	29.448
522.25	29.414
522.60	29.367
522.94	29.443
523.29	29.464
523.63	29.411
523.98	29.420
524.32	29.437
524.67	29.369
525.01	29.341
525.36	29.307
525.70	29.289
526.05	29.285
526.39	29.198
526.74	29.164
527.08	29.139
527.43	29.007
527.77	29.052
528.12	28.961
528.46	28.905
528.81	28.780
529.15	28.760
529.50	28.769
529.84	28.588
530.19	28.443
530.53	28.378
530.88	28.235
531.22	28.164
531.57	28.070
531.91	27.911
532.26	27.830
532.60	27.630
532.94	27.536
533.29	27.358
533.63	27.232
533.98	27.039
534.32	26.879
534.67	26.657
535.01	26.516
535.35	26.308
535.70	26.124
536.04	25.904
536.39	25.766
536.73	25.495
537.07	25.308
537.42	25.132
537.76	24.888
538.11	24.705
538.45	24.472
538.79	24.344
539.14	24.078
539.48	23.933
539.82	23.751
540.17	23.569
540.51	23.349
540.85	23.216
541.20	23.056
541.54	22.831
541.89	22.739
542.23	22.587
542.57	22.438
542.92	22.369
543.26	22.202
543.60	22.120
543.94	22.072
544.29	21.981
544.63	21.858
544.97	21.863
545.32	21.848
545.66	21.792
546.00	21.789
546.35	21.744
546.69	21.732
547.03	21.800
547.37	21.812
547.72	21.780
548.06	21.876
548.40	21.857
548.75	21.914
549.09	21.986
549.43	22.058
549.77	22.111
550.12	22.202
550.46	22.309
550.80	22.339
551.14	22.433
551.49	22.485
551.83	22.711
552.17	22.803
552.51	22.896
552.85	23.044
553.20	23.236
553.54	23.347
553.88	23.577
554.22	23.693
554.56	23.811
554.91	24.159
555.25	24.301
555.59	24.532
555.93	24.756
556.27	24.967
556.62	25.213
556.96	25.426
557.30	25.648
557.64	25.859
557.98	26.132
558.32	26.362
558.67	26.650
559.01	26.876
559.35	27.069
559.69	27.314
560.03	27.562
560.37	27.807
560.71	28.061
561.05	28.291
561.40	28.396
561.74	28.652
562.08	28.859
562.42	29.111
562.76	29.285
563.10	29.500
563.44	29.649
563.78	29.722
564.12	30.017
564.46	30.166
564.81	30.290
565.15	30.372
565.49	30.523
565.83	30.629
566.17	30.734
566.51	30.858
566.85	30.907
567.19	31.023
567.53	31.159
567.87	31.231
568.21	31.243
568.55	31.216
568.89	31.318
569.23	31.376
569.57	31.362
569.91	31.332
570.25	31.359
570.59	31.357
570.93	31.311
571.27	31.332
571.61	31.264
571.95	31.185
572.29	31.132
572.63	31.136
572.97	31.002
573.31	31.050
573.65	30.913
573.99	30.838
574.33	30.762
574.67	30.678
575.01	30.493
575.35	30.473
575.69	30.310
576.03	30.265
576.37	30.109
576.71	29.979
577.05	29.825
577.39	29.679
577.73	29.564
578.06	29.438
578.40	29.219
578.74	29.017
579.08	28.909
579.42	28.719
579.76	28.535
580.10	28.351
580.44	28.202
580.78	28.045
581.12	27.812
581.45	27.586
581.79	27.403
582.13	27.216
582.47	27.016
582.81	26.843
583.15	26.676
583.49	26.522
583.83	26.379
584.16	26.126
584.50	25.988
584.84	25.904
585.18	25.692
585.52	25.581
585.86	25.436
586.19	25.310
586.53	25.123
586.87	25.025
587.21	24.866
587.55	24.653
587.88	24.574
588.22	24.388
588.56	24.218
588.90	24.046
589.24	23.878
589.57	23.681
589.91	23.491
590.25	23.291
590.59	23.057
590.92	22.921
591.26	22.719
591.60	22.476
591.94	22.258
592.27	22.021
592.61	21.803
592.95	21.523
593.29	21.289
593.62	21.042
593.96	20.765
594.30	20.450
594.64	20.157
594.97	19.857
595.31	19.515
595.65	19.177
595.98	18.815
596.32	18.432
596.66	18.092
597.00	17.653
597.33	17.241
597.67	16.869
598.01	16.438
598.34	15.981
598.68	15.586
599.02	15.158
599.35	14.759
599.69	14.355
600.03	13.936
600.36	13.618
600.70	13.286
601.03	12.941
601.37	12.674
601.71	12.340
602.04	12.059
602.38	11.792
602.72	11.510
603.05	11.270
603.39	11.037
603.72	10.788
604.06	10.507
604.40	10.341
604.73	10.014
605.07	9.804
605.40	9.543
605.74	9.299
606.08	8.990
606.41	8.767
606.75	8.479
607.08	8.261
607.42	7.972
607.75	7.731
608.09	7.463
608.42	7.219
608.76	6.958
609.10	6.692
609.43	6.444
609.77	6.177
610.10	5.930
610.44	5.694
610.77	5.462
611.11	5.236
611.44	5.030
611.78	4.748
612.11	4.554
612.45	4.331
612.78	4.142
613.12	3.952
613.45	3.758
613.79	3.570
614.12	3.396
614.46	3.202
614.79	3.074
615.13	2.888
615.46	2.751
615.79	2.642
616.13	2.506
616.46	2.398
616.80	2.246
617.13	2.168
617.47	2.058
617.80	1.996
618.13	1.902
618.47	1.822
618.80	1.789
619.14	1.686
619.47	1.627
619.81	1.571
620.14	1.525
620.47	1.454
620.81	1.412
621.14	1.387
621.47	1.323
621.81	1.269
622.14	1.240
622.48	1.189
622.81	1.152
623.14	1.132
623.48	1.097
623.81	1.083
624.14	1.023
624.48	1.040
624.81	1.020
625.14	0.984
625.48	0.983
625.81	0.984
626.14	0.955
626.48	0.948
626.81	0.955
627.14	0.959
627.48	0.990
627.81	0.977
628.14	0.986
628.47	0.987
628.81	1.003
629.14	1.043
629.47	1.079
629.81	1.105
630.14	1.129
630.47	1.155
630.80	1.223
631.14	1.270
631.47	1.315
