SpectraSuite Data File
++++++++++++++++++++++++++++++++++++
Date: Thu Apr 23 21:20:26 BST 2015
User: mpfc3
Dark Spectrum Present: Yes
Reference Spectrum Present: Yes
Number of Sampled Component Spectra: 1
Spectrometers: USB2E3636
Integration Time (usec): 30000 (USB2E3636)
Spectra Averaged: 100 (USB2E3636)
Boxcar Smoothing: 0 (USB2E3636)
Correct for Electrical Dark: No (USB2E3636)
Strobe/Lamp Enabled: No (USB2E3636)
Correct for Detector Non-linearity: No (USB2E3636)
Correct for Stray Light: No (USB2E3636)
Number of Pixels in Processed Spectrum: 2048
>>>>>Begin Processed Spectral Data<<<<<
180.28	0.000
180.65	705.882
181.02	411.043
181.39	568.067
181.77	1292.157
182.14	594.167
182.51	421.053
182.88	866.279
183.25	596.522
183.63	2025.806
184.00	842.500
184.37	780.460
184.74	555.000
185.11	514.074
185.49	1697.368
185.86	308.824
186.23	448.214
186.60	457.237
186.97	414.458
187.35	752.128
187.72	643.636
188.09	1146.552
188.46	515.504
188.83	438.926
189.20	-179.070
189.58	-23.263
189.95	-29.329
190.32	-28.984
190.69	-28.650
191.06	-27.890
191.43	-25.109
191.81	-29.569
192.18	-29.176
192.55	-28.145
192.92	-24.182
193.29	-24.876
193.66	-28.641
194.03	-26.268
194.41	-25.268
194.78	-24.959
195.15	-29.545
195.52	-25.284
195.89	-30.859
196.26	-25.266
196.63	-24.252
197.01	-27.438
197.38	-23.884
197.75	-27.339
198.12	-23.745
198.49	-29.751
198.86	-27.886
199.23	-28.956
199.60	-29.470
199.98	-30.508
200.35	-30.119
200.72	-29.141
201.09	-26.617
201.46	-28.927
201.83	-25.054
202.20	-26.460
202.57	-25.570
202.94	-30.311
203.31	-25.762
203.69	-28.381
204.06	-29.540
204.43	-28.485
204.80	-31.182
205.17	-30.170
205.54	-29.361
205.91	-28.604
206.28	-29.972
206.65	-26.096
207.02	-27.667
207.39	-25.083
207.76	-26.730
208.14	-30.976
208.51	-29.179
208.88	-28.993
209.25	-24.684
209.62	-31.775
209.99	-30.503
210.36	-26.659
210.73	-25.801
211.10	-31.546
211.47	-32.260
211.84	-26.744
212.21	-29.857
212.58	-35.440
212.95	-33.253
213.32	-29.401
213.69	-32.868
214.06	-33.673
214.43	-26.331
214.80	-31.797
215.17	-28.647
215.55	-32.351
215.92	-29.263
216.29	-32.790
216.66	-29.073
217.03	-31.986
217.40	-32.552
217.77	-31.108
218.14	-29.888
218.51	-30.952
218.88	-33.005
219.25	-32.712
219.62	-31.757
219.99	-29.976
220.36	-38.431
220.73	-23.720
221.10	-34.733
221.47	-29.319
221.84	-34.165
222.21	-37.741
222.58	-32.960
222.95	-32.010
223.32	-31.651
223.69	-32.314
224.06	-36.310
224.43	-32.186
224.80	-35.151
225.17	-32.406
225.54	-31.931
225.91	-38.333
226.27	-28.635
226.64	-36.944
227.01	-32.159
227.38	-38.252
227.75	-32.439
228.12	-31.357
228.49	-38.589
228.86	-34.092
229.23	-31.651
229.60	-36.662
229.97	-41.291
230.34	-40.502
230.71	-31.494
231.08	-34.826
231.45	-35.318
231.82	-34.506
232.19	-34.473
232.56	-37.525
232.93	-38.188
233.30	-39.769
233.66	-37.240
234.03	-43.821
234.40	-34.024
234.77	-40.896
235.14	-36.964
235.51	-39.235
235.88	-39.930
236.25	-34.813
236.62	-35.769
236.99	-40.864
237.36	-35.095
237.73	-37.545
238.09	-38.692
238.46	-40.886
238.83	-38.304
239.20	-36.534
239.57	-34.996
239.94	-40.573
240.31	-41.593
240.68	-41.691
241.05	-41.120
241.41	-38.689
241.78	-37.733
242.15	-46.050
242.52	-49.231
242.89	-37.093
243.26	-42.392
243.63	-42.238
244.00	-36.129
244.36	-40.433
244.73	-35.210
245.10	-39.632
245.47	-44.050
245.84	-35.876
246.21	-41.230
246.58	-37.758
246.94	-43.126
247.31	-32.349
247.68	-31.005
248.05	-35.596
248.42	-46.166
248.79	-40.324
249.15	-34.823
249.52	-44.304
249.89	-44.316
250.26	-45.411
250.63	-38.433
251.00	-37.974
251.36	-39.651
251.73	-33.890
252.10	-47.611
252.47	-44.781
252.84	-40.920
253.20	-43.978
253.57	-46.010
253.94	-45.047
254.31	-43.213
254.68	-44.269
255.05	-44.980
255.41	-41.368
255.78	-46.347
256.15	-37.500
256.52	-44.646
256.88	-39.468
257.25	-38.821
257.62	-42.338
257.99	-39.859
258.36	-41.536
258.72	-47.007
259.09	-45.948
259.46	-40.434
259.83	-38.324
260.19	-33.125
260.56	-41.325
260.93	-41.976
261.30	-39.106
261.67	-48.731
262.03	-46.122
262.40	-40.749
262.77	-42.163
263.14	-34.703
263.50	-50.286
263.87	-43.352
264.24	-47.865
264.61	-45.124
264.97	-37.931
265.34	-39.701
265.71	-48.061
266.07	-41.757
266.44	-43.254
266.81	-49.493
267.18	-47.262
267.54	-49.092
267.91	-43.053
268.28	-40.956
268.64	-46.766
269.01	-38.732
269.38	-44.444
269.75	-45.000
270.11	-49.246
270.48	-46.560
270.85	-38.060
271.21	-45.485
271.58	-46.807
271.95	-47.386
272.32	-46.331
272.68	-38.205
273.05	-50.626
273.42	-46.769
273.78	-47.187
274.15	-44.922
274.52	-50.087
274.88	-42.158
275.25	-49.288
275.62	-51.368
275.98	-52.756
276.35	-41.821
276.72	-40.438
277.08	-44.237
277.45	-48.910
277.82	-40.199
278.18	-41.933
278.55	-43.386
278.92	-40.064
279.28	-41.954
279.65	-46.148
280.01	-42.857
280.38	-44.380
280.75	-49.743
281.11	-47.826
281.48	-38.986
281.85	-45.923
282.21	-43.835
282.58	-43.876
282.95	-41.172
283.31	-43.250
283.68	-38.462
284.04	-43.928
284.41	-43.339
284.78	-45.705
285.14	-38.245
285.51	-46.447
285.87	-43.342
286.24	-41.303
286.61	-49.621
286.97	-47.602
287.34	-46.867
287.70	-46.572
288.07	-48.172
288.44	-44.575
288.80	-43.336
289.17	-44.242
289.53	-41.794
289.90	-40.869
290.26	-49.740
290.63	-42.904
291.00	-42.152
291.36	-39.952
291.73	-39.271
292.09	-47.368
292.46	-47.413
292.82	-39.661
293.19	-40.816
293.56	-45.946
293.92	-43.970
294.29	-50.166
294.65	-40.016
295.02	-42.655
295.38	-43.045
295.75	-39.450
296.11	-48.070
296.48	-45.185
296.84	-46.504
297.21	-49.612
297.57	-42.600
297.94	-46.044
298.30	-41.619
298.67	-39.578
299.04	-40.467
299.40	-44.389
299.77	-38.432
300.13	-40.989
300.50	-40.643
300.86	-38.834
301.23	-42.548
301.59	-47.496
301.96	-42.763
302.32	-45.179
302.69	-40.093
303.05	-41.646
303.42	-44.177
303.78	-43.051
304.14	-32.652
304.51	-44.830
304.87	-41.905
305.24	-42.011
305.60	-42.011
305.97	-38.693
306.33	-43.570
306.70	-32.685
307.06	-43.386
307.43	-36.411
307.79	-42.133
308.16	-40.853
308.52	-38.935
308.88	-39.495
309.25	-39.970
309.61	-33.559
309.98	-41.077
310.34	-36.370
310.71	-35.000
311.07	-36.727
311.44	-39.971
311.80	-38.064
312.16	-47.328
312.53	-36.176
312.89	-34.795
313.26	-41.654
313.62	-39.930
313.98	-39.181
314.35	-32.801
314.71	-36.875
315.08	-34.386
315.44	-32.224
315.80	-35.719
316.17	-33.310
316.53	-30.927
316.90	-30.570
317.26	-27.005
317.62	-33.970
317.99	-36.072
318.35	-31.332
318.72	-29.298
319.08	-36.671
319.44	-31.091
319.81	-32.421
320.17	-34.101
320.53	-34.059
320.90	-28.779
321.26	-29.689
321.62	-27.377
321.99	-37.061
322.35	-32.725
322.72	-27.283
323.08	-30.185
323.44	-29.988
323.81	-31.884
324.17	-31.168
324.53	-31.784
324.90	-29.902
325.26	-30.164
325.62	-30.516
325.99	-29.954
326.35	-29.675
326.71	-27.736
327.08	-26.998
327.44	-25.714
327.80	-23.248
328.16	-24.033
328.53	-28.792
328.89	-27.072
329.25	-26.600
329.62	-18.287
329.98	-22.314
330.34	-22.407
330.71	-22.992
331.07	-25.893
331.43	-19.423
331.79	-21.806
332.16	-15.443
332.52	-21.679
332.88	-26.320
333.24	-19.691
333.61	-23.295
333.97	-19.406
334.33	-20.669
334.70	-19.928
335.06	-17.682
335.42	-22.981
335.78	-17.350
336.15	-17.300
336.51	-18.300
336.87	-14.910
337.23	-15.376
337.60	-19.039
337.96	-17.217
338.32	-21.085
338.68	-15.390
339.04	-13.881
339.41	-16.235
339.77	-15.130
340.13	-13.950
340.49	-15.167
340.86	-14.599
341.22	-17.119
341.58	-15.740
341.94	-15.506
342.30	-14.866
342.67	-14.108
343.03	-12.912
343.39	-13.561
343.75	-12.134
344.11	-11.960
344.48	-12.500
344.84	-11.825
345.20	-13.772
345.56	-12.749
345.92	-14.236
346.28	-10.540
346.65	-10.406
347.01	-11.357
347.37	-11.604
347.73	-10.261
348.09	-10.014
348.45	-10.116
348.82	-8.729
349.18	-11.059
349.54	-10.267
349.90	-10.263
350.26	-9.569
350.62	-9.099
350.98	-9.503
351.35	-9.182
351.71	-9.286
352.07	-7.979
352.43	-9.145
352.79	-8.521
353.15	-7.807
353.51	-8.728
353.87	-7.904
354.24	-7.944
354.60	-9.363
354.96	-7.622
355.32	-7.702
355.68	-8.261
356.04	-7.393
356.40	-7.326
356.76	-8.075
357.12	-6.762
357.48	-7.506
357.85	-7.260
358.21	-6.394
358.57	-7.272
358.93	-6.640
359.29	-6.888
359.65	-7.179
360.01	-6.305
360.37	-6.343
360.73	-6.756
361.09	-5.626
361.45	-5.470
361.81	-5.843
362.17	-5.974
362.53	-5.480
362.89	-6.179
363.25	-6.350
363.62	-6.118
363.98	-5.840
364.34	-5.804
364.70	-5.419
365.06	-5.369
365.42	-5.016
365.78	-4.959
366.14	-4.930
366.50	-4.011
366.86	-4.724
367.22	-4.592
367.58	-5.364
367.94	-4.743
368.30	-4.422
368.66	-4.559
369.02	-3.971
369.38	-4.635
369.74	-4.287
370.10	-4.058
370.46	-4.027
370.82	-4.822
371.18	-4.085
371.54	-4.237
371.90	-3.251
372.26	-4.255
372.62	-4.091
372.98	-3.798
373.33	-3.914
373.69	-3.534
374.05	-2.725
374.41	-3.428
374.77	-3.188
375.13	-3.101
375.49	-2.412
375.85	-2.626
376.21	-2.634
376.57	-3.079
376.93	-2.948
377.29	-2.158
377.65	-2.410
378.01	-2.220
378.37	-2.171
378.73	-2.430
379.08	-1.576
379.44	-1.767
379.80	-2.119
380.16	-1.619
380.52	-1.445
380.88	-1.894
381.24	-2.005
381.60	-1.496
381.96	-2.017
382.32	-1.134
382.67	-1.422
383.03	-1.529
383.39	-0.901
383.75	-1.118
384.11	-1.219
384.47	-1.115
384.83	-1.418
385.19	-0.357
385.54	-0.793
385.90	-0.317
386.26	-0.400
386.62	-0.411
386.98	-0.390
387.34	-0.207
387.70	-0.006
388.05	-0.173
388.41	0.347
388.77	0.382
389.13	0.698
389.49	0.914
389.85	0.670
390.20	1.207
390.56	0.979
390.92	0.966
391.28	1.381
391.64	1.382
391.99	1.486
392.35	1.558
392.71	2.415
393.07	1.779
393.43	2.060
393.78	1.835
394.14	2.469
394.50	2.523
394.86	2.623
395.22	2.344
395.57	2.553
395.93	3.003
396.29	2.883
396.65	2.949
397.00	3.294
397.36	3.513
397.72	3.411
398.08	3.411
398.43	3.752
398.79	4.255
399.15	3.546
399.51	4.021
399.86	4.318
400.22	4.450
400.58	4.244
400.94	4.771
401.29	4.446
401.65	4.834
402.01	4.893
402.37	5.016
402.72	5.132
403.08	5.422
403.44	5.596
403.79	5.572
404.15	5.786
404.51	5.557
404.86	6.045
405.22	6.069
405.58	5.972
405.94	6.289
406.29	6.234
406.65	6.441
407.01	6.576
407.36	6.447
407.72	6.967
408.08	7.163
408.43	7.099
408.79	7.052
409.15	7.026
409.50	7.433
409.86	7.610
410.22	7.486
410.57	7.884
410.93	7.928
411.29	8.309
411.64	8.044
412.00	8.305
412.35	8.261
412.71	8.441
413.07	8.760
413.42	8.716
413.78	9.060
414.14	9.169
414.49	9.120
414.85	9.154
415.20	9.418
415.56	9.378
415.92	9.520
416.27	9.640
416.63	9.868
416.98	9.873
417.34	10.166
417.70	10.252
418.05	10.413
418.41	10.492
418.76	10.602
419.12	10.393
419.47	10.853
419.83	11.037
420.19	11.205
420.54	11.084
420.90	11.148
421.25	11.146
421.61	11.578
421.96	11.533
422.32	11.770
422.67	11.729
423.03	12.047
423.39	12.037
423.74	12.131
424.10	12.296
424.45	12.276
424.81	12.416
425.16	12.556
425.52	12.736
425.87	12.821
426.23	12.916
426.58	12.935
426.94	12.902
427.29	13.354
427.65	13.172
428.00	13.198
428.36	13.517
428.71	13.583
429.07	13.787
429.42	13.804
429.78	13.888
430.13	14.080
430.49	14.269
430.84	14.190
431.19	14.351
431.55	14.449
431.90	14.652
432.26	14.581
432.61	14.710
432.97	14.895
433.32	15.046
433.68	15.089
434.03	14.990
434.39	15.363
434.74	15.349
435.09	15.324
435.45	15.531
435.80	15.620
436.16	15.520
436.51	15.796
436.86	15.767
437.22	16.019
437.57	16.156
437.93	16.264
438.28	16.327
438.63	16.328
438.99	16.442
439.34	16.554
439.70	16.645
440.05	16.783
440.40	16.767
440.76	16.798
441.11	17.127
441.47	17.131
441.82	17.080
442.17	17.174
442.53	17.268
442.88	17.454
443.23	17.506
443.59	17.616
443.94	17.668
444.29	17.823
444.65	17.825
445.00	17.978
445.35	18.027
445.71	18.127
446.06	18.269
446.41	18.248
446.77	18.301
447.12	18.474
447.47	18.611
447.83	18.637
448.18	18.732
448.53	18.855
448.89	18.795
449.24	18.928
449.59	19.052
449.94	19.184
450.30	19.123
450.65	19.389
451.00	19.491
451.36	19.460
451.71	19.574
452.06	19.686
452.41	19.794
452.77	19.767
453.12	19.887
453.47	20.141
453.82	20.175
454.18	20.171
454.53	20.357
454.88	20.339
455.23	20.608
455.59	20.504
455.94	20.680
456.29	20.836
456.64	20.826
457.00	20.927
457.35	21.076
457.70	21.105
458.05	21.238
458.40	21.249
458.76	21.375
459.11	21.285
459.46	21.426
459.81	21.649
460.16	21.597
460.52	21.650
460.87	21.936
461.22	21.784
461.57	21.964
461.92	21.983
462.28	22.151
462.63	22.224
462.98	22.421
463.33	22.282
463.68	22.348
464.03	22.568
464.38	22.657
464.74	22.673
465.09	22.742
465.44	22.709
465.79	22.814
466.14	22.921
466.49	22.989
466.84	22.979
467.20	23.130
467.55	23.251
467.90	23.328
468.25	23.425
468.60	23.456
468.95	23.441
469.30	23.489
469.65	23.574
470.00	23.654
470.36	23.684
470.71	23.696
471.06	23.696
471.41	23.842
471.76	23.937
472.11	24.014
472.46	23.938
472.81	24.040
473.16	24.051
473.51	24.127
473.86	24.133
474.21	24.215
474.56	24.163
474.91	24.238
475.26	24.286
475.62	24.263
475.97	24.269
476.32	24.300
476.67	24.392
477.02	24.353
477.37	24.446
477.72	24.458
478.07	24.465
478.42	24.469
478.77	24.506
479.12	24.436
479.47	24.500
479.82	24.523
480.17	24.527
480.52	24.473
480.87	24.488
481.22	24.575
481.57	24.580
481.92	24.558
482.27	24.582
482.62	24.586
482.97	24.618
483.32	24.532
483.67	24.627
484.02	24.584
484.36	24.626
484.71	24.640
485.06	24.691
485.41	24.686
485.76	24.713
486.11	24.732
486.46	24.785
486.81	24.849
487.16	24.831
487.51	24.944
487.86	24.975
488.21	25.039
488.56	25.076
488.91	25.075
489.25	25.196
489.60	25.191
489.95	25.279
490.30	25.318
490.65	25.388
491.00	25.466
491.35	25.507
491.70	25.587
492.05	25.668
492.39	25.779
492.74	25.808
493.09	25.861
493.44	25.961
493.79	26.024
494.14	26.115
494.49	26.160
494.83	26.227
495.18	26.366
495.53	26.374
495.88	26.482
496.23	26.593
496.58	26.615
496.92	26.682
497.27	26.776
497.62	26.853
497.97	26.823
498.32	27.023
498.67	27.039
499.01	27.147
499.36	27.206
499.71	27.228
500.06	27.326
500.41	27.364
500.75	27.450
501.10	27.531
501.45	27.598
501.80	27.693
502.14	27.663
502.49	27.771
502.84	27.803
503.19	27.922
503.53	27.964
503.88	28.001
504.23	28.036
504.58	28.094
504.92	28.131
505.27	28.174
505.62	28.258
505.97	28.210
506.31	28.268
506.66	28.350
507.01	28.372
507.36	28.355
507.70	28.401
508.05	28.440
508.40	28.343
508.74	28.361
509.09	28.390
509.44	28.396
509.79	28.331
510.13	28.338
510.48	28.333
510.83	28.332
511.17	28.283
511.52	28.216
511.87	28.315
512.21	28.269
512.56	28.255
512.91	28.241
513.25	28.267
513.60	28.297
513.95	28.266
514.29	28.393
514.64	28.363
514.98	28.433
515.33	28.430
515.68	28.502
516.02	28.542
516.37	28.554
516.72	28.598
517.06	28.644
517.41	28.681
517.75	28.752
518.10	28.772
518.45	28.770
518.79	28.779
519.14	28.810
519.48	28.860
519.83	28.842
520.18	28.858
520.52	28.857
520.87	28.920
521.21	28.896
521.56	28.928
521.90	28.848
522.25	28.948
522.60	28.906
522.94	28.955
523.29	28.943
523.63	28.878
523.98	28.890
524.32	28.932
524.67	28.913
525.01	28.833
525.36	28.797
525.70	28.748
526.05	28.809
526.39	28.698
526.74	28.668
527.08	28.623
527.43	28.582
527.77	28.526
528.12	28.403
528.46	28.385
528.81	28.280
529.15	28.271
529.50	28.254
529.84	28.078
530.19	27.968
530.53	27.901
530.88	27.784
531.22	27.636
531.57	27.515
531.91	27.444
532.26	27.363
532.60	27.177
532.94	27.033
533.29	26.929
533.63	26.781
533.98	26.646
534.32	26.382
534.67	26.251
535.01	26.091
535.35	25.855
535.70	25.693
536.04	25.469
536.39	25.364
536.73	25.108
537.07	24.929
537.42	24.747
537.76	24.542
538.11	24.313
538.45	24.056
538.79	23.948
539.14	23.709
539.48	23.532
539.82	23.418
540.17	23.212
540.51	22.993
540.85	22.830
541.20	22.647
541.54	22.448
541.89	22.310
542.23	22.195
542.57	22.090
542.92	22.015
543.26	21.845
543.60	21.782
543.94	21.747
544.29	21.645
544.63	21.505
544.97	21.534
545.32	21.460
545.66	21.431
546.00	21.452
546.35	21.455
546.69	21.383
547.03	21.424
547.37	21.434
547.72	21.464
548.06	21.515
548.40	21.507
548.75	21.555
549.09	21.639
549.43	21.698
549.77	21.733
550.12	21.815
550.46	21.888
550.80	21.946
551.14	22.057
551.49	22.133
551.83	22.307
552.17	22.429
552.51	22.500
552.85	22.682
553.20	22.779
553.54	22.971
553.88	23.134
554.22	23.321
554.56	23.477
554.91	23.772
555.25	23.951
555.59	24.134
555.93	24.328
556.27	24.551
556.62	24.784
556.96	25.042
557.30	25.238
557.64	25.450
557.98	25.702
558.32	25.967
558.67	26.212
559.01	26.460
559.35	26.591
559.69	26.851
560.03	27.079
560.37	27.333
560.71	27.567
561.05	27.776
561.40	27.935
561.74	28.182
562.08	28.394
562.42	28.601
562.76	28.802
563.10	28.949
563.44	29.205
563.78	29.311
564.12	29.512
564.46	29.656
564.81	29.758
565.15	29.901
565.49	30.017
565.83	30.159
566.17	30.221
566.51	30.367
566.85	30.454
567.19	30.498
567.53	30.632
567.87	30.715
568.21	30.719
568.55	30.683
568.89	30.807
569.23	30.850
569.57	30.846
569.91	30.832
570.25	30.889
570.59	30.853
570.93	30.803
571.27	30.832
571.61	30.760
571.95	30.709
572.29	30.666
572.63	30.583
572.97	30.556
573.31	30.518
573.65	30.398
573.99	30.326
574.33	30.267
574.67	30.180
575.01	30.037
575.35	29.958
575.69	29.813
576.03	29.763
576.37	29.673
576.71	29.516
577.05	29.364
577.39	29.184
577.73	29.100
578.06	28.922
578.40	28.774
578.74	28.597
579.08	28.426
579.42	28.262
579.76	28.114
580.10	27.932
580.44	27.767
580.78	27.590
581.12	27.350
581.45	27.141
581.79	26.996
582.13	26.788
582.47	26.620
582.81	26.411
583.15	26.273
583.49	26.071
583.83	25.935
584.16	25.723
584.50	25.590
584.84	25.518
585.18	25.330
585.52	25.102
585.86	25.016
586.19	24.902
586.53	24.744
586.87	24.603
587.21	24.452
587.55	24.254
587.88	24.188
588.22	24.039
588.56	23.805
588.90	23.662
589.24	23.529
589.57	23.273
589.91	23.141
590.25	22.928
590.59	22.753
590.92	22.554
591.26	22.385
591.60	22.134
591.94	21.924
592.27	21.716
592.61	21.466
592.95	21.236
593.29	20.940
593.62	20.666
593.96	20.442
594.30	20.128
594.64	19.888
594.97	19.542
595.31	19.247
595.65	18.892
595.98	18.558
596.32	18.185
596.66	17.809
597.00	17.435
597.33	17.024
597.67	16.635
598.01	16.149
598.34	15.769
598.68	15.355
599.02	14.906
599.35	14.524
599.69	14.107
600.03	13.756
600.36	13.430
600.70	13.053
601.03	12.730
601.37	12.495
601.71	12.174
602.04	11.858
602.38	11.602
602.72	11.354
603.05	11.140
603.39	10.881
603.72	10.605
604.06	10.381
604.40	10.180
604.73	9.887
605.07	9.641
605.40	9.418
605.74	9.119
606.08	8.885
606.41	8.640
606.75	8.393
607.08	8.155
607.42	7.854
607.75	7.644
608.09	7.383
608.42	7.140
608.76	6.886
609.10	6.618
609.43	6.334
609.77	6.118
610.10	5.893
610.44	5.648
610.77	5.389
611.11	5.181
611.44	4.968
611.78	4.727
612.11	4.513
612.45	4.335
612.78	4.084
613.12	3.906
613.45	3.722
613.79	3.537
614.12	3.351
614.46	3.196
614.79	3.023
615.13	2.896
615.46	2.742
615.79	2.615
616.13	2.458
616.46	2.367
616.80	2.227
617.13	2.159
617.47	2.040
617.80	1.983
618.13	1.897
618.47	1.805
618.80	1.756
619.14	1.671
619.47	1.622
619.81	1.552
620.14	1.508
620.47	1.456
620.81	1.393
621.14	1.345
621.47	1.320
621.81	1.251
622.14	1.234
622.48	1.191
622.81	1.143
623.14	1.108
623.48	1.115
623.81	1.047
624.14	1.050
624.48	1.035
624.81	1.013
625.14	0.995
625.48	0.984
625.81	0.962
626.14	0.948
626.48	0.943
626.81	0.952
627.14	0.961
627.48	0.958
627.81	0.969
628.14	0.982
628.47	0.995
628.81	0.986
629.14	1.041
629.47	1.077
629.81	1.112
630.14	1.140
630.47	1.177
630.80	1.217
631.14	1.265
631.47	1.312
