SpectraSuite Data File
++++++++++++++++++++++++++++++++++++
Date: Thu Apr 23 21:24:32 BST 2015
User: mpfc3
Dark Spectrum Present: Yes
Reference Spectrum Present: Yes
Number of Sampled Component Spectra: 1
Spectrometers: USB2E3636
Integration Time (usec): 30000 (USB2E3636)
Spectra Averaged: 100 (USB2E3636)
Boxcar Smoothing: 0 (USB2E3636)
Correct for Electrical Dark: No (USB2E3636)
Strobe/Lamp Enabled: No (USB2E3636)
Correct for Detector Non-linearity: No (USB2E3636)
Correct for Stray Light: No (USB2E3636)
Number of Pixels in Processed Spectrum: 2048
>>>>>Begin Processed Spectral Data<<<<<
180.28	0.000
180.65	726.471
181.02	476.074
181.39	659.664
181.77	1533.333
182.14	640.000
182.51	459.064
182.88	917.442
183.25	678.261
183.63	2341.935
184.00	988.750
184.37	901.149
184.74	686.667
185.11	598.519
185.49	1992.105
185.86	338.235
186.23	454.167
186.60	547.368
186.97	463.855
187.35	823.404
187.72	700.909
188.09	1208.621
188.46	610.078
188.83	512.081
189.20	-207.494
189.58	-31.789
189.95	-35.498
190.32	-34.925
190.69	-36.173
191.06	-30.647
191.43	-31.072
191.81	-33.279
192.18	-34.002
192.55	-31.399
192.92	-30.563
193.29	-29.984
193.66	-33.804
194.03	-29.863
194.41	-35.461
194.78	-31.702
195.15	-34.632
195.52	-32.469
195.89	-38.006
196.26	-31.064
196.63	-30.184
197.01	-36.364
197.38	-31.828
197.75	-32.462
198.12	-28.975
198.49	-36.369
198.86	-29.504
199.23	-29.871
199.60	-34.492
199.98	-33.461
200.35	-32.112
200.72	-32.355
201.09	-32.656
201.46	-32.522
201.83	-28.273
202.20	-31.066
202.57	-28.990
202.94	-33.534
203.31	-31.598
203.69	-35.337
204.06	-33.643
204.43	-39.878
204.80	-39.520
205.17	-32.255
205.54	-36.960
205.91	-35.271
206.28	-35.694
206.65	-34.976
207.02	-33.278
207.39	-34.406
207.76	-34.384
208.14	-34.456
208.51	-38.254
208.88	-33.166
209.25	-32.930
209.62	-35.089
209.99	-35.084
210.36	-34.702
210.73	-31.647
211.10	-35.986
211.47	-39.227
211.84	-34.593
212.21	-36.562
212.58	-38.216
212.95	-39.125
213.32	-38.899
213.69	-39.550
214.06	-40.276
214.43	-35.148
214.80	-35.579
215.17	-37.353
215.55	-37.385
215.92	-36.519
216.29	-37.994
216.66	-36.029
217.03	-37.176
217.40	-38.409
217.77	-38.021
218.14	-35.115
218.51	-37.729
218.88	-36.268
219.25	-39.327
219.62	-36.486
219.99	-36.325
220.36	-45.294
220.73	-31.783
221.10	-43.957
221.47	-37.895
221.84	-42.994
222.21	-42.747
222.58	-35.572
222.95	-40.757
223.32	-41.558
223.69	-41.236
224.06	-43.742
224.43	-39.324
224.80	-40.276
225.17	-40.888
225.54	-38.496
225.91	-46.600
226.27	-31.888
226.64	-39.458
227.01	-37.220
227.38	-48.671
227.75	-38.059
228.12	-35.771
228.49	-43.638
228.86	-41.444
229.23	-39.122
229.60	-48.906
229.97	-52.477
230.34	-46.472
230.71	-39.805
231.08	-43.055
231.45	-44.046
231.82	-45.737
232.19	-42.066
232.56	-42.216
232.93	-43.066
233.30	-49.964
233.66	-45.284
234.03	-51.634
234.40	-41.511
234.77	-46.549
235.14	-45.257
235.51	-46.105
235.88	-46.316
236.25	-44.521
236.62	-43.354
236.99	-47.521
237.36	-44.327
237.73	-48.148
238.09	-42.867
238.46	-49.455
238.83	-45.442
239.20	-40.988
239.57	-51.357
239.94	-45.663
240.31	-46.681
240.68	-46.176
241.05	-48.195
241.41	-43.948
241.78	-46.831
242.15	-47.856
242.52	-52.154
242.89	-45.119
243.26	-49.205
243.63	-48.014
244.00	-43.728
244.36	-46.354
244.73	-44.334
245.10	-47.868
245.47	-49.372
245.84	-45.468
246.21	-48.671
246.58	-47.419
246.94	-49.411
247.31	-41.066
247.68	-43.336
248.05	-42.238
248.42	-54.064
248.79	-45.180
249.15	-46.302
249.52	-50.554
249.89	-45.862
250.26	-53.085
250.63	-45.064
251.00	-46.868
251.36	-51.864
251.73	-47.170
252.10	-61.215
252.47	-52.042
252.84	-50.728
253.20	-50.194
253.57	-55.700
253.94	-54.717
254.31	-43.213
254.68	-52.727
255.05	-54.776
255.41	-48.528
255.78	-53.734
256.15	-50.617
256.52	-52.362
256.88	-48.865
257.25	-43.951
257.62	-53.318
257.99	-53.171
258.36	-44.906
258.72	-55.626
259.09	-52.714
259.46	-50.968
259.83	-50.272
260.19	-45.313
260.56	-52.918
260.93	-51.779
261.30	-48.763
261.67	-55.499
262.03	-54.379
262.40	-46.370
262.77	-48.981
263.14	-47.184
263.50	-51.592
263.87	-56.970
264.24	-56.158
264.61	-54.298
264.97	-46.477
265.34	-51.258
265.71	-51.939
266.07	-53.305
266.44	-52.302
266.81	-57.010
267.18	-59.141
267.54	-57.591
267.91	-49.435
268.28	-47.092
268.64	-58.292
269.01	-44.767
269.38	-53.933
269.75	-57.328
270.11	-53.853
270.48	-53.943
270.85	-54.197
271.21	-54.766
271.58	-60.504
271.95	-57.755
272.32	-55.647
272.68	-49.881
273.05	-57.298
273.42	-58.588
273.78	-53.568
274.15	-52.684
274.52	-60.490
274.88	-53.361
275.25	-56.999
275.62	-66.726
275.98	-63.605
276.35	-51.330
276.72	-48.865
277.08	-53.084
277.45	-64.342
277.82	-45.906
278.18	-51.679
278.55	-52.441
278.92	-52.484
279.28	-52.709
279.65	-54.745
280.01	-53.306
280.38	-52.397
280.75	-59.434
281.11	-56.689
281.48	-48.891
281.85	-55.408
282.21	-50.438
282.58	-57.550
282.95	-51.017
283.31	-45.513
283.68	-48.157
284.04	-48.981
284.41	-50.740
284.78	-52.961
285.14	-45.411
285.51	-57.868
285.87	-56.741
286.24	-51.690
286.61	-53.665
286.97	-58.849
287.34	-53.885
287.70	-55.268
288.07	-55.402
288.44	-60.976
288.80	-56.406
289.17	-54.598
289.53	-50.592
289.90	-54.143
290.26	-59.532
290.63	-54.373
291.00	-47.249
291.36	-48.599
291.73	-52.794
292.09	-49.958
292.46	-51.739
292.82	-50.889
293.19	-49.469
293.56	-56.334
293.92	-55.109
294.29	-55.141
294.65	-49.491
295.02	-46.504
295.38	-50.370
295.75	-52.546
296.11	-54.614
296.48	-49.383
296.84	-53.412
297.21	-58.570
297.57	-46.515
297.94	-57.997
298.30	-51.431
298.67	-44.731
299.04	-47.385
299.40	-57.357
299.77	-44.825
300.13	-49.601
300.50	-44.900
300.86	-43.982
301.23	-45.593
301.59	-52.087
301.96	-53.947
302.32	-51.554
302.69	-46.309
303.05	-51.100
303.42	-48.996
303.78	-47.843
304.14	-44.848
304.51	-51.535
304.87	-48.954
305.24	-44.786
305.60	-51.052
305.97	-46.916
306.33	-47.277
306.70	-42.693
307.06	-49.213
307.43	-45.571
307.79	-48.033
308.16	-44.884
308.52	-46.062
308.88	-44.989
309.25	-47.843
309.61	-42.342
309.98	-50.769
310.34	-42.589
310.71	-43.657
311.07	-45.527
311.44	-45.222
311.80	-42.795
312.16	-49.109
312.53	-46.979
312.89	-42.631
313.26	-50.902
313.62	-46.667
313.98	-48.904
314.35	-40.375
314.71	-43.750
315.08	-46.316
315.44	-43.980
315.80	-43.011
316.17	-41.467
316.53	-38.940
316.90	-36.936
317.26	-36.341
317.62	-40.750
317.99	-40.748
318.35	-38.381
318.72	-35.593
319.08	-44.114
319.44	-41.307
319.81	-34.785
320.17	-38.772
320.53	-38.988
320.90	-31.137
321.26	-35.484
321.62	-30.265
321.99	-40.958
322.35	-38.564
322.72	-35.029
323.08	-33.413
323.44	-36.268
323.81	-37.797
324.17	-36.770
324.53	-32.702
324.90	-32.794
325.26	-33.164
325.62	-34.770
325.99	-36.559
326.35	-34.308
326.71	-34.399
327.08	-30.281
327.44	-32.052
327.80	-28.677
328.16	-29.101
328.53	-34.694
328.89	-31.823
329.25	-31.742
329.62	-22.941
329.98	-28.186
330.34	-29.092
330.71	-29.647
331.07	-29.041
331.43	-23.213
331.79	-23.441
332.16	-23.755
332.52	-21.805
332.88	-27.164
333.24	-25.240
333.61	-24.820
333.97	-24.544
334.33	-25.357
334.70	-24.850
335.06	-20.864
335.42	-24.829
335.78	-23.856
336.15	-22.110
336.51	-22.265
336.87	-20.382
337.23	-21.366
337.60	-19.694
337.96	-20.660
338.32	-21.302
338.68	-19.738
339.04	-17.958
339.41	-20.587
339.77	-16.749
340.13	-17.413
340.49	-18.844
340.86	-19.218
341.22	-18.831
341.58	-19.619
341.94	-16.280
342.30	-18.315
342.67	-17.802
343.03	-15.706
343.39	-18.897
343.75	-16.110
344.11	-14.176
344.48	-15.072
344.84	-14.802
345.20	-16.004
345.56	-14.960
345.92	-16.096
346.28	-13.924
346.65	-13.505
347.01	-13.823
347.37	-14.859
347.73	-14.776
348.09	-13.943
348.45	-11.301
348.82	-10.475
349.18	-13.127
349.54	-12.063
349.90	-12.375
350.26	-11.668
350.62	-11.248
350.98	-12.481
351.35	-10.506
351.71	-12.396
352.07	-9.789
352.43	-11.708
352.79	-11.143
353.15	-10.498
353.51	-9.775
353.87	-11.034
354.24	-10.495
354.60	-11.032
354.96	-9.424
355.32	-9.511
355.68	-10.326
356.04	-8.922
356.40	-7.984
356.76	-10.245
357.12	-9.150
357.48	-8.561
357.85	-9.881
358.21	-8.542
358.57	-9.089
358.93	-8.979
359.29	-8.233
359.65	-8.846
360.01	-7.886
360.37	-8.375
360.73	-7.352
361.09	-7.315
361.45	-8.107
361.81	-8.544
362.17	-7.805
362.53	-7.459
362.89	-7.982
363.25	-7.710
363.62	-7.295
363.98	-7.197
364.34	-7.433
364.70	-6.599
365.06	-6.127
365.42	-6.485
365.78	-5.606
366.14	-5.896
366.50	-5.712
366.86	-5.979
367.22	-5.392
367.58	-6.760
367.94	-5.775
368.30	-6.165
368.66	-5.175
369.02	-5.569
369.38	-5.788
369.74	-5.608
370.10	-5.488
370.46	-4.887
370.82	-5.523
371.18	-4.660
371.54	-5.373
371.90	-4.253
372.26	-5.002
372.62	-5.160
372.98	-4.506
373.33	-4.185
373.69	-4.100
374.05	-4.016
374.41	-4.290
374.77	-4.565
375.13	-3.742
375.49	-3.603
375.85	-3.976
376.21	-3.308
376.57	-3.698
376.93	-3.785
377.29	-3.606
377.65	-4.055
378.01	-3.672
378.37	-3.215
378.73	-3.432
379.08	-3.039
379.44	-3.273
379.80	-3.041
380.16	-2.302
380.52	-2.434
380.88	-2.344
381.24	-2.448
381.60	-2.127
381.96	-2.287
382.32	-2.097
382.67	-1.950
383.03	-2.263
383.39	-1.751
383.75	-1.834
384.11	-1.850
384.47	-1.889
384.83	-1.827
385.19	-0.927
385.54	-1.567
385.90	-1.898
386.26	-1.248
386.62	-1.219
386.98	-0.878
387.34	-1.053
387.70	-1.077
388.05	-0.675
388.41	0.211
388.77	0.160
389.13	-0.018
389.49	-0.213
389.85	0.227
390.20	0.669
390.56	0.663
390.92	0.451
391.28	0.748
391.64	0.742
391.99	0.760
392.35	0.720
392.71	1.309
393.07	0.777
393.43	1.494
393.78	1.140
394.14	1.524
394.50	1.782
394.86	1.768
395.22	2.017
395.57	1.812
395.93	2.240
396.29	2.285
396.65	2.184
397.00	2.689
397.36	2.836
397.72	2.549
398.08	2.958
398.43	2.960
398.79	3.541
399.15	3.199
399.51	3.781
399.86	3.780
400.22	3.945
400.58	3.778
400.94	4.097
401.29	3.628
401.65	4.192
402.01	4.271
402.37	4.417
402.72	4.559
403.08	4.735
403.44	4.881
403.79	5.197
404.15	5.081
404.51	5.283
404.86	5.450
405.22	5.463
405.58	5.432
405.94	5.984
406.29	5.762
406.65	6.005
407.01	5.846
407.36	6.259
407.72	6.402
408.08	6.484
408.43	6.523
408.79	6.700
409.15	6.488
409.50	7.012
409.86	6.862
410.22	6.852
410.57	7.192
410.93	7.533
411.29	7.730
411.64	7.579
412.00	7.730
412.35	7.878
412.71	8.162
413.07	8.275
413.42	8.198
413.78	8.462
414.14	8.574
414.49	8.889
414.85	8.812
415.20	9.035
415.56	8.883
415.92	8.910
416.27	9.055
416.63	9.276
416.98	9.452
417.34	9.573
417.70	9.669
418.05	9.759
418.41	10.066
418.76	9.989
419.12	10.113
419.47	10.238
419.83	10.500
420.19	10.636
420.54	10.658
420.90	10.699
421.25	10.941
421.61	11.103
421.96	10.951
422.32	11.239
422.67	11.276
423.03	11.437
423.39	11.402
423.74	11.572
424.10	11.738
424.45	11.836
424.81	11.990
425.16	12.085
425.52	11.910
425.87	12.080
426.23	12.478
426.58	12.426
426.94	12.463
427.29	12.858
427.65	12.643
428.00	12.786
428.36	12.944
428.71	13.293
429.07	13.440
429.42	13.362
429.78	13.292
430.13	13.534
430.49	13.804
430.84	13.789
431.19	13.786
431.55	14.049
431.90	14.069
432.26	14.124
432.61	14.217
432.97	14.436
433.32	14.507
433.68	14.428
434.03	14.665
434.39	14.768
434.74	14.929
435.09	14.872
435.45	14.962
435.80	15.021
436.16	15.167
436.51	15.244
436.86	15.436
437.22	15.475
437.57	15.614
437.93	15.635
438.28	15.894
438.63	15.819
438.99	15.803
439.34	16.178
439.70	16.139
440.05	16.198
440.40	16.255
440.76	16.389
441.11	16.603
441.47	16.488
441.82	16.612
442.17	16.883
442.53	16.748
442.88	16.958
443.23	17.015
443.59	17.050
443.94	17.201
444.29	17.297
444.65	17.372
445.00	17.464
445.35	17.545
445.71	17.676
446.06	17.699
446.41	17.869
446.77	17.747
447.12	17.881
447.47	18.021
447.83	18.128
448.18	18.426
448.53	18.388
448.89	18.328
449.24	18.483
449.59	18.575
449.94	18.560
450.30	18.589
450.65	18.753
451.00	18.916
451.36	18.858
451.71	19.085
452.06	19.264
452.41	19.273
452.77	19.464
453.12	19.396
453.47	19.642
453.82	19.683
454.18	19.691
454.53	19.719
454.88	19.820
455.23	19.995
455.59	20.126
455.94	20.043
456.29	20.242
456.64	20.190
457.00	20.377
457.35	20.497
457.70	20.575
458.05	20.673
458.40	20.789
458.76	21.002
459.11	20.894
459.46	21.019
459.81	21.167
460.16	21.113
460.52	21.226
460.87	21.326
461.22	21.440
461.57	21.550
461.92	21.452
462.28	21.790
462.63	21.738
462.98	21.787
463.33	21.875
463.68	21.985
464.03	22.059
464.38	22.056
464.74	22.185
465.09	22.282
465.44	22.360
465.79	22.345
466.14	22.622
466.49	22.602
466.84	22.602
467.20	22.666
467.55	22.846
467.90	22.815
468.25	23.000
468.60	23.102
468.95	23.065
469.30	23.151
469.65	23.241
470.00	23.263
470.36	23.380
470.71	23.387
471.06	23.367
471.41	23.426
471.76	23.503
472.11	23.628
472.46	23.654
472.81	23.650
473.16	23.680
473.51	23.796
473.86	23.781
474.21	23.851
474.56	23.848
474.91	23.919
475.26	23.983
475.62	23.955
475.97	23.900
476.32	23.956
476.67	24.029
477.02	23.988
477.37	24.081
477.72	24.060
478.07	24.130
478.42	24.059
478.77	24.105
479.12	24.100
479.47	24.078
479.82	24.104
480.17	24.180
480.52	24.116
480.87	24.135
481.22	24.109
481.57	24.110
481.92	24.133
482.27	24.180
482.62	24.184
482.97	24.188
483.32	24.239
483.67	24.272
484.02	24.227
484.36	24.217
484.71	24.261
485.06	24.327
485.41	24.295
485.76	24.390
486.11	24.346
486.46	24.367
486.81	24.467
487.16	24.438
487.51	24.537
487.86	24.545
488.21	24.594
488.56	24.694
488.91	24.609
489.25	24.802
489.60	24.850
489.95	24.936
490.30	24.985
490.65	25.040
491.00	25.035
491.35	25.149
491.70	25.180
492.05	25.303
492.39	25.324
492.74	25.437
493.09	25.504
493.44	25.493
493.79	25.596
494.14	25.669
494.49	25.753
494.83	25.815
495.18	25.958
495.53	25.983
495.88	26.036
496.23	26.225
496.58	26.193
496.92	26.249
497.27	26.450
497.62	26.515
497.97	26.495
498.32	26.586
498.67	26.654
499.01	26.751
499.36	26.839
499.71	26.887
500.06	26.929
500.41	27.072
500.75	27.067
501.10	27.146
501.45	27.182
501.80	27.239
502.14	27.268
502.49	27.344
502.84	27.352
503.19	27.446
503.53	27.561
503.88	27.598
504.23	27.585
504.58	27.643
504.92	27.697
505.27	27.709
505.62	27.762
505.97	27.736
506.31	27.869
506.66	27.880
507.01	27.905
507.36	27.897
507.70	27.923
508.05	27.949
508.40	27.884
508.74	27.853
509.09	27.929
509.44	27.853
509.79	27.917
510.13	27.740
510.48	27.828
510.83	27.777
511.17	27.797
511.52	27.761
511.87	27.778
512.21	27.748
512.56	27.738
512.91	27.725
513.25	27.768
513.60	27.746
513.95	27.827
514.29	27.895
514.64	27.888
514.98	27.938
515.33	27.986
515.68	28.009
516.02	28.050
516.37	28.086
516.72	28.117
517.06	28.134
517.41	28.226
517.75	28.225
518.10	28.253
518.45	28.275
518.79	28.305
519.14	28.328
519.48	28.368
519.83	28.325
520.18	28.408
520.52	28.368
520.87	28.396
521.21	28.415
521.56	28.442
521.90	28.422
522.25	28.464
522.60	28.375
522.94	28.469
523.29	28.470
523.63	28.433
523.98	28.426
524.32	28.378
524.67	28.350
525.01	28.382
525.36	28.359
525.70	28.263
526.05	28.282
526.39	28.221
526.74	28.205
527.08	28.114
527.43	27.978
527.77	27.995
528.12	28.005
528.46	27.879
528.81	27.835
529.15	27.808
529.50	27.701
529.84	27.639
530.19	27.530
530.53	27.424
530.88	27.278
531.22	27.205
531.57	27.096
531.91	26.988
532.26	26.888
532.60	26.731
532.94	26.560
533.29	26.355
533.63	26.255
533.98	26.111
534.32	25.978
534.67	25.754
535.01	25.611
535.35	25.416
535.70	25.227
536.04	25.024
536.39	24.867
536.73	24.636
537.07	24.437
537.42	24.259
537.76	24.091
538.11	23.872
538.45	23.655
538.79	23.484
539.14	23.260
539.48	23.098
539.82	22.937
540.17	22.766
540.51	22.538
540.85	22.396
541.20	22.262
541.54	22.027
541.89	21.968
542.23	21.849
542.57	21.660
542.92	21.610
543.26	21.506
543.60	21.386
543.94	21.349
544.29	21.287
544.63	21.193
544.97	21.187
545.32	21.121
545.66	21.122
546.00	21.115
546.35	21.113
546.69	21.096
547.03	21.119
547.37	21.151
547.72	21.142
548.06	21.180
548.40	21.196
548.75	21.292
549.09	21.286
549.43	21.358
549.77	21.462
550.12	21.509
550.46	21.584
550.80	21.661
551.14	21.747
551.49	21.838
551.83	22.045
552.17	22.151
552.51	22.220
552.85	22.397
553.20	22.535
553.54	22.717
553.88	22.837
554.22	23.011
554.56	23.204
554.91	23.467
555.25	23.613
555.59	23.834
555.93	24.052
556.27	24.199
556.62	24.408
556.96	24.766
557.30	24.913
557.64	25.149
557.98	25.354
558.32	25.626
558.67	25.853
559.01	26.052
559.35	26.227
559.69	26.540
560.03	26.729
560.37	26.978
560.71	27.226
561.05	27.409
561.40	27.542
561.74	27.767
562.08	27.922
562.42	28.140
562.76	28.356
563.10	28.555
563.44	28.736
563.78	28.850
564.12	28.951
564.46	29.179
564.81	29.326
565.15	29.418
565.49	29.519
565.83	29.697
566.17	29.763
566.51	29.848
566.85	29.930
567.19	29.991
567.53	30.077
567.87	30.184
568.21	30.211
568.55	30.248
568.89	30.248
569.23	30.291
569.57	30.316
569.91	30.335
570.25	30.327
570.59	30.273
570.93	30.264
571.27	30.283
571.61	30.293
571.95	30.214
572.29	30.118
572.63	30.066
572.97	30.052
573.31	30.010
573.65	29.840
573.99	29.788
574.33	29.704
574.67	29.655
575.01	29.513
575.35	29.454
575.69	29.302
576.03	29.239
576.37	29.096
576.71	29.000
577.05	28.876
577.39	28.677
577.73	28.549
578.06	28.360
578.40	28.302
578.74	28.121
579.08	27.945
579.42	27.799
579.76	27.631
580.10	27.419
580.44	27.165
580.78	27.071
581.12	26.926
581.45	26.671
581.79	26.511
582.13	26.340
582.47	26.186
582.81	25.945
583.15	25.845
583.49	25.634
583.83	25.534
584.16	25.321
584.50	25.183
584.84	25.136
585.18	24.915
585.52	24.852
585.86	24.679
586.19	24.472
586.53	24.440
586.87	24.275
587.21	24.111
587.55	23.889
587.88	23.872
588.22	23.707
588.56	23.439
588.90	23.285
589.24	23.102
589.57	22.990
589.91	22.795
590.25	22.577
590.59	22.424
590.92	22.247
591.26	22.032
591.60	21.784
591.94	21.624
592.27	21.366
592.61	21.107
592.95	20.885
593.29	20.647
593.62	20.349
593.96	20.082
594.30	19.804
594.64	19.511
594.97	19.184
595.31	18.902
595.65	18.580
595.98	18.210
596.32	17.825
596.66	17.444
597.00	17.039
597.33	16.651
597.67	16.231
598.01	15.837
598.34	15.386
598.68	14.994
599.02	14.587
599.35	14.176
599.69	13.800
600.03	13.436
600.36	13.127
600.70	12.796
601.03	12.448
601.37	12.229
601.71	11.909
602.04	11.650
602.38	11.379
602.72	11.140
603.05	10.930
603.39	10.681
603.72	10.447
604.06	10.195
604.40	9.973
604.73	9.675
605.07	9.473
605.40	9.201
605.74	8.963
606.08	8.728
606.41	8.460
606.75	8.209
607.08	7.957
607.42	7.706
607.75	7.485
608.09	7.200
608.42	6.980
608.76	6.720
609.10	6.455
609.43	6.202
609.77	5.987
610.10	5.760
610.44	5.494
610.77	5.275
611.11	5.039
611.44	4.842
611.78	4.617
612.11	4.373
612.45	4.207
612.78	4.007
613.12	3.816
613.45	3.654
613.79	3.456
614.12	3.287
614.46	3.118
614.79	2.979
615.13	2.816
615.46	2.645
615.79	2.557
616.13	2.423
616.46	2.304
616.80	2.172
617.13	2.105
617.47	2.016
617.80	1.919
618.13	1.872
618.47	1.784
618.80	1.737
619.14	1.641
619.47	1.557
619.81	1.527
620.14	1.481
620.47	1.427
620.81	1.372
621.14	1.324
621.47	1.289
621.81	1.224
622.14	1.197
622.48	1.151
622.81	1.119
623.14	1.082
623.48	1.085
623.81	1.043
624.14	1.023
624.48	1.000
624.81	0.968
625.14	0.956
625.48	0.942
625.81	0.946
626.14	0.907
626.48	0.917
626.81	0.905
627.14	0.913
627.48	0.945
627.81	0.912
628.14	0.940
628.47	0.957
628.81	0.944
629.14	0.975
629.47	1.042
629.81	1.052
630.14	1.078
630.47	1.110
630.80	1.168
631.14	1.220
