SpectraSuite Data File
++++++++++++++++++++++++++++++++++++
Date: Thu Apr 23 21:23:00 BST 2015
User: mpfc3
Dark Spectrum Present: Yes
Reference Spectrum Present: Yes
Number of Sampled Component Spectra: 1
Spectrometers: USB2E3636
Integration Time (usec): 30000 (USB2E3636)
Spectra Averaged: 100 (USB2E3636)
Boxcar Smoothing: 0 (USB2E3636)
Correct for Electrical Dark: No (USB2E3636)
Strobe/Lamp Enabled: No (USB2E3636)
Correct for Detector Non-linearity: No (USB2E3636)
Correct for Stray Light: No (USB2E3636)
Number of Pixels in Processed Spectrum: 2048
>>>>>Begin Processed Spectral Data<<<<<
180.28	0.000
180.65	724.510
181.02	453.374
181.39	637.815
181.77	1341.176
182.14	611.667
182.51	461.988
182.88	869.767
183.25	622.609
183.63	2290.323
184.00	955.000
184.37	789.655
184.74	605.833
185.11	554.074
185.49	1886.842
185.86	350.840
186.23	452.381
186.60	516.447
186.97	448.193
187.35	767.021
187.72	650.909
188.09	1189.655
188.46	579.070
188.83	495.973
189.20	-194.832
189.58	-28.105
189.95	-32.684
190.32	-30.705
190.69	-31.914
191.06	-27.943
191.43	-28.228
191.81	-35.461
192.18	-31.399
192.55	-31.833
192.92	-30.885
193.29	-28.501
193.66	-28.859
194.03	-28.383
194.41	-32.672
194.78	-26.591
195.15	-27.868
195.52	-30.740
195.89	-33.019
196.26	-30.798
196.63	-27.087
197.01	-33.499
197.38	-27.985
197.75	-28.176
198.12	-27.354
198.49	-33.824
198.86	-28.479
199.23	-31.324
199.60	-31.181
199.98	-32.313
200.35	-31.034
200.72	-32.355
201.09	-33.618
201.46	-32.633
201.83	-29.506
202.20	-29.352
202.57	-30.565
202.94	-33.261
203.31	-28.812
203.69	-30.328
204.06	-32.385
204.43	-35.066
204.80	-33.695
205.17	-30.938
205.54	-35.866
205.91	-34.758
206.28	-34.448
206.65	-28.858
207.02	-32.778
207.39	-30.355
207.76	-33.427
208.14	-29.517
208.51	-32.510
208.88	-30.551
209.25	-27.982
209.62	-34.083
209.99	-32.961
210.36	-33.465
210.73	-27.712
211.10	-34.025
211.47	-36.768
211.84	-31.105
212.21	-33.467
212.58	-36.444
212.95	-34.931
213.32	-34.725
213.69	-36.634
214.06	-35.054
214.43	-31.834
214.80	-34.456
215.17	-33.824
215.55	-36.648
215.92	-31.386
216.29	-38.056
216.66	-33.413
217.03	-35.667
217.40	-35.697
217.77	-34.923
218.14	-32.883
218.51	-37.179
218.88	-36.946
219.25	-33.193
219.62	-34.337
219.99	-36.325
220.36	-43.137
220.73	-28.016
221.10	-43.511
221.47	-34.124
221.84	-36.276
222.21	-41.528
222.58	-35.634
222.95	-38.462
223.32	-39.938
223.69	-34.736
224.06	-39.439
224.43	-34.481
224.80	-38.173
225.17	-40.888
225.54	-40.727
225.91	-42.733
226.27	-31.888
226.64	-42.102
227.01	-37.412
227.38	-43.427
227.75	-36.973
228.12	-35.837
228.49	-40.111
228.86	-39.297
229.23	-34.404
229.60	-42.476
229.97	-46.772
230.34	-41.588
230.71	-35.000
231.08	-40.355
231.45	-43.031
231.82	-38.701
232.19	-37.278
232.56	-39.021
232.93	-45.645
233.30	-43.022
233.66	-38.766
234.03	-45.668
234.40	-37.166
234.77	-41.336
235.14	-43.148
235.51	-40.864
235.88	-40.702
236.25	-44.105
236.62	-40.223
236.99	-43.626
237.36	-42.142
237.73	-41.685
238.09	-43.006
238.46	-43.718
238.83	-38.163
239.20	-42.310
239.57	-44.901
239.94	-43.226
240.31	-46.681
240.68	-47.059
241.05	-41.562
241.41	-44.597
241.78	-46.085
242.15	-48.984
242.52	-52.923
242.89	-42.155
243.26	-45.042
243.63	-43.755
244.00	-40.000
244.36	-41.227
244.73	-41.768
245.10	-43.824
245.47	-43.607
245.84	-45.393
246.21	-48.671
246.58	-39.602
246.94	-50.039
247.31	-36.455
247.68	-42.124
248.05	-43.610
248.42	-45.936
248.79	-38.411
249.15	-46.687
249.52	-46.361
249.89	-42.691
250.26	-51.503
250.63	-40.166
251.00	-46.017
251.36	-50.119
251.73	-43.396
252.10	-54.980
252.47	-47.882
252.84	-46.054
253.20	-49.728
253.57	-51.059
253.94	-51.965
254.31	-40.572
254.68	-47.036
255.05	-50.041
255.41	-53.620
255.78	-51.136
256.15	-43.596
256.52	-48.740
256.88	-46.280
257.25	-43.951
257.62	-52.133
257.99	-47.377
258.36	-45.611
258.72	-49.242
259.09	-50.197
259.46	-45.856
259.83	-44.841
260.19	-49.297
260.56	-45.189
260.93	-49.486
261.30	-46.927
261.67	-54.146
262.03	-49.541
262.40	-43.950
262.77	-46.160
263.14	-44.901
263.50	-52.408
263.87	-48.670
264.24	-50.903
264.61	-54.463
264.97	-43.703
265.34	-44.497
265.71	-50.759
266.07	-53.138
266.44	-47.302
266.81	-53.209
267.18	-53.580
267.54	-53.300
267.91	-49.758
268.28	-42.948
268.64	-47.512
269.01	-42.934
269.38	-49.392
269.75	-55.862
270.11	-51.089
270.48	-54.362
270.85	-49.633
271.21	-50.753
271.58	-56.471
271.95	-50.643
272.32	-52.102
272.68	-49.563
273.05	-57.381
273.42	-55.357
273.78	-52.981
274.15	-49.298
274.52	-57.692
274.88	-49.046
275.25	-53.227
275.62	-56.840
275.98	-53.806
276.35	-48.590
276.72	-45.057
277.08	-52.110
277.45	-54.752
277.82	-51.447
278.18	-46.519
278.55	-47.795
278.92	-44.872
279.28	-46.059
279.65	-46.229
280.01	-45.306
280.38	-49.091
280.75	-53.516
281.11	-55.853
281.48	-43.899
281.85	-49.584
282.21	-46.142
282.58	-54.362
282.95	-49.064
283.31	-43.897
283.68	-43.510
284.04	-46.618
284.41	-48.109
284.78	-51.626
285.14	-45.572
285.51	-52.707
285.87	-52.771
286.24	-47.980
286.61	-55.097
286.97	-59.459
287.34	-50.627
287.70	-53.763
288.07	-48.172
288.44	-51.135
288.80	-52.193
289.17	-50.124
289.53	-49.239
289.90	-51.488
290.26	-58.666
290.63	-50.908
291.00	-46.359
291.36	-48.519
291.73	-48.826
292.09	-47.870
292.46	-49.025
292.82	-43.861
293.19	-49.551
293.56	-52.111
293.92	-52.596
294.29	-52.570
294.65	-42.208
295.02	-41.791
295.38	-48.807
295.75	-52.627
296.11	-48.490
296.48	-53.251
296.84	-47.178
297.21	-52.455
297.57	-40.407
297.94	-52.694
298.30	-49.469
298.67	-41.218
299.04	-48.351
299.40	-53.117
299.77	-39.193
300.13	-48.724
300.50	-47.229
300.86	-44.209
301.23	-48.638
301.59	-48.748
301.96	-50.740
302.32	-47.570
302.69	-50.194
303.05	-44.173
303.42	-47.470
303.78	-46.246
304.14	-40.000
304.51	-52.423
304.87	-48.490
305.24	-45.986
305.60	-48.480
305.97	-42.878
306.33	-44.478
306.70	-35.853
307.06	-48.031
307.43	-43.844
307.79	-45.159
308.16	-46.589
308.52	-42.536
308.88	-42.762
309.25	-50.416
309.61	-39.865
309.98	-46.923
310.34	-40.998
310.71	-43.284
311.07	-40.145
311.44	-44.420
311.80	-40.611
312.16	-48.025
312.53	-38.664
312.89	-39.684
313.26	-50.526
313.62	-43.439
313.98	-45.249
314.35	-38.568
314.71	-38.125
315.08	-41.614
315.44	-37.960
315.80	-39.770
316.17	-39.753
316.53	-36.424
316.90	-34.549
317.26	-35.526
317.62	-36.998
317.99	-41.817
318.35	-36.031
318.72	-34.443
319.08	-44.181
319.44	-34.137
319.81	-34.536
320.17	-40.243
320.53	-36.364
320.90	-32.285
321.26	-30.705
321.62	-26.895
321.99	-40.383
322.35	-33.698
322.72	-30.231
323.08	-34.788
323.44	-33.040
323.81	-36.464
324.17	-33.969
324.53	-33.448
324.90	-34.182
325.26	-36.106
325.62	-29.836
325.99	-36.153
326.35	-32.543
326.71	-31.257
327.08	-30.228
327.44	-30.234
327.80	-25.913
328.16	-28.422
328.53	-32.212
328.89	-32.155
329.25	-30.588
329.62	-22.117
329.98	-25.402
330.34	-25.081
330.71	-27.719
331.07	-27.679
331.43	-21.102
331.79	-22.839
332.16	-22.574
332.52	-21.932
332.88	-23.968
333.24	-21.902
333.61	-24.735
333.97	-24.926
334.33	-23.400
334.70	-22.569
335.06	-20.472
335.42	-23.825
335.78	-21.136
336.15	-21.490
336.51	-22.913
336.87	-17.885
337.23	-20.051
337.60	-18.347
337.96	-19.595
338.32	-20.723
338.68	-16.805
339.04	-17.790
339.41	-19.620
339.77	-15.097
340.13	-16.237
340.49	-16.907
340.86	-16.118
341.22	-19.671
341.58	-17.485
341.94	-16.373
342.30	-17.338
342.67	-18.377
343.03	-14.206
343.39	-16.686
343.75	-16.313
344.11	-12.983
344.48	-14.270
344.84	-14.278
345.20	-14.807
345.56	-14.151
345.92	-15.233
346.28	-14.622
346.65	-11.136
347.01	-13.104
347.37	-13.951
347.73	-12.753
348.09	-11.763
348.45	-10.614
348.82	-11.034
349.18	-12.849
349.54	-11.994
349.90	-10.422
350.26	-11.532
350.62	-9.844
350.98	-11.868
351.35	-10.399
351.71	-10.990
352.07	-8.800
352.43	-9.555
352.79	-9.975
353.15	-9.345
353.51	-9.953
353.87	-9.925
354.24	-9.026
354.60	-10.342
354.96	-9.518
355.32	-8.075
355.68	-9.681
356.04	-9.228
356.40	-8.161
356.76	-8.716
357.12	-8.052
357.48	-8.596
357.85	-8.605
358.21	-8.102
358.57	-7.586
358.93	-8.047
359.29	-8.298
359.65	-7.308
360.01	-7.491
360.37	-6.932
360.73	-7.811
361.09	-7.436
361.45	-7.733
361.81	-6.891
362.17	-6.831
362.53	-6.412
362.89	-7.152
363.25	-7.317
363.62	-7.267
363.98	-6.114
364.34	-6.356
364.70	-6.625
365.06	-6.336
365.42	-5.835
365.78	-5.517
366.14	-5.781
366.50	-5.389
366.86	-5.364
367.22	-5.195
367.58	-6.748
367.94	-4.933
368.30	-4.773
368.66	-4.396
369.02	-4.724
369.38	-4.771
369.74	-4.701
370.10	-5.455
370.46	-4.931
370.82	-4.542
371.18	-4.330
371.54	-4.056
371.90	-3.747
372.26	-4.562
372.62	-4.783
372.98	-3.728
373.33	-4.355
373.69	-3.971
374.05	-3.717
374.41	-3.467
374.77	-4.405
375.13	-3.978
375.49	-2.984
375.85	-3.384
376.21	-3.461
376.57	-3.160
376.93	-3.688
377.29	-2.973
377.65	-2.497
378.01	-2.886
378.37	-2.644
378.73	-2.822
379.08	-2.218
379.44	-2.784
379.80	-2.596
380.16	-2.381
380.52	-1.664
380.88	-2.320
381.24	-2.098
381.60	-2.225
381.96	-2.174
382.32	-2.068
382.67	-1.422
383.03	-1.815
383.39	-1.398
383.75	-1.089
384.11	-1.786
384.47	-1.318
384.83	-1.654
385.19	-0.851
385.54	-0.848
385.90	-1.067
386.26	-0.667
386.62	-0.702
386.98	-0.436
387.34	-0.123
387.70	-0.803
388.05	-0.418
388.41	0.509
388.77	0.130
389.13	0.275
389.49	-0.055
389.85	0.598
390.20	0.882
390.56	1.044
390.92	0.648
391.28	0.737
391.64	1.122
391.99	1.100
392.35	1.294
392.71	1.643
393.07	1.284
393.43	1.593
393.78	1.618
394.14	1.938
394.50	2.161
394.86	2.317
395.22	2.552
395.57	2.465
395.93	2.911
396.29	2.529
396.65	2.835
397.00	3.216
397.36	3.673
397.72	3.308
398.08	3.700
398.43	3.724
398.79	3.865
399.15	3.729
399.51	3.999
399.86	4.190
400.22	4.353
400.58	4.432
400.94	4.465
401.29	4.415
401.65	4.604
402.01	4.876
402.37	4.899
402.72	5.128
403.08	5.368
403.44	5.381
403.79	5.498
404.15	5.970
404.51	5.447
404.86	6.169
405.22	5.893
405.58	6.054
405.94	6.192
406.29	6.364
406.65	6.441
407.01	6.538
407.36	6.756
407.72	6.926
408.08	7.140
408.43	7.066
408.79	7.237
409.15	6.936
409.50	7.541
409.86	7.472
410.22	7.518
410.57	7.870
410.93	8.164
411.29	8.441
411.64	8.224
412.00	8.319
412.35	8.244
412.71	8.421
413.07	8.812
413.42	8.798
413.78	9.028
414.14	9.256
414.49	9.233
414.85	9.308
415.20	9.494
415.56	9.623
415.92	9.566
416.27	9.814
416.63	10.035
416.98	10.092
417.34	10.233
417.70	10.365
418.05	10.664
418.41	10.605
418.76	10.752
419.12	10.825
419.47	11.072
419.83	11.100
420.19	11.281
420.54	11.295
420.90	11.437
421.25	11.507
421.61	11.840
421.96	11.625
422.32	11.909
422.67	11.846
423.03	12.169
423.39	12.139
423.74	12.224
424.10	12.496
424.45	12.431
424.81	12.754
425.16	12.818
425.52	12.785
425.87	13.071
426.23	13.353
426.58	13.367
426.94	13.214
427.29	13.404
427.65	13.451
428.00	13.562
428.36	13.760
428.71	14.128
429.07	14.055
429.42	14.137
429.78	14.259
430.13	14.379
430.49	14.490
430.84	14.401
431.19	14.532
431.55	14.782
431.90	14.743
432.26	14.932
432.61	14.993
432.97	15.130
433.32	15.264
433.68	15.383
434.03	15.286
434.39	15.629
434.74	15.687
435.09	15.610
435.45	15.718
435.80	15.997
436.16	16.022
436.51	16.051
436.86	16.011
437.22	16.257
437.57	16.422
437.93	16.532
438.28	16.644
438.63	16.703
438.99	16.712
439.34	16.895
439.70	17.134
440.05	17.127
440.40	17.193
440.76	17.208
441.11	17.291
441.47	17.393
441.82	17.585
442.17	17.568
442.53	17.680
442.88	17.797
443.23	17.865
443.59	17.957
443.94	18.016
444.29	18.144
444.65	18.297
445.00	18.232
445.35	18.468
445.71	18.459
446.06	18.637
446.41	18.682
446.77	18.727
447.12	18.849
447.47	18.995
447.83	19.090
448.18	19.233
448.53	19.157
448.89	19.299
449.24	19.417
449.59	19.521
449.94	19.545
450.30	19.602
450.65	19.715
451.00	19.834
451.36	19.883
451.71	19.998
452.06	20.003
452.41	20.245
452.77	20.313
453.12	20.467
453.47	20.498
453.82	20.604
454.18	20.702
454.53	20.777
454.88	20.759
455.23	21.018
455.59	20.865
455.94	21.162
456.29	21.207
456.64	21.269
457.00	21.513
457.35	21.460
457.70	21.496
458.05	21.717
458.40	21.762
458.76	21.842
459.11	21.920
459.46	21.965
459.81	22.088
460.16	22.080
460.52	22.191
460.87	22.446
461.22	22.435
461.57	22.573
461.92	22.461
462.28	22.608
462.63	22.796
462.98	22.856
463.33	22.828
463.68	22.994
464.03	22.995
464.38	23.168
464.74	23.155
465.09	23.268
465.44	23.370
465.79	23.363
466.14	23.519
466.49	23.618
466.84	23.532
467.20	23.771
467.55	23.787
467.90	23.885
468.25	23.871
468.60	23.970
468.95	24.038
469.30	24.188
469.65	24.133
470.00	24.279
470.36	24.387
470.71	24.340
471.06	24.394
471.41	24.450
471.76	24.436
472.11	24.558
472.46	24.610
472.81	24.571
473.16	24.702
473.51	24.786
473.86	24.768
474.21	24.833
474.56	24.904
474.91	24.947
475.26	24.972
475.62	24.896
475.97	25.007
476.32	24.997
476.67	24.996
477.02	25.037
477.37	25.115
477.72	25.026
478.07	25.105
478.42	25.058
478.77	25.099
479.12	25.040
479.47	25.097
479.82	25.075
480.17	25.109
480.52	25.151
480.87	25.169
481.22	25.134
481.57	25.173
481.92	25.138
482.27	25.210
482.62	25.227
482.97	25.173
483.32	25.209
483.67	25.226
484.02	25.273
484.36	25.154
484.71	25.296
485.06	25.296
485.41	25.244
485.76	25.278
486.11	25.463
486.46	25.352
486.81	25.428
487.16	25.465
487.51	25.488
487.86	25.623
488.21	25.678
488.56	25.729
488.91	25.702
489.25	25.820
489.60	25.848
489.95	25.962
490.30	26.084
490.65	26.056
491.00	26.066
491.35	26.118
491.70	26.309
492.05	26.327
492.39	26.401
492.74	26.443
493.09	26.551
493.44	26.601
493.79	26.638
494.14	26.776
494.49	26.781
494.83	26.923
495.18	27.031
495.53	27.108
495.88	27.182
496.23	27.238
496.58	27.310
496.92	27.330
497.27	27.468
497.62	27.590
497.97	27.515
498.32	27.672
498.67	27.786
499.01	27.807
499.36	27.926
499.71	27.954
500.06	28.027
500.41	28.142
500.75	28.144
501.10	28.266
501.45	28.258
501.80	28.374
502.14	28.352
502.49	28.447
502.84	28.603
503.19	28.644
503.53	28.654
503.88	28.640
504.23	28.769
504.58	28.795
504.92	28.842
505.27	28.925
505.62	28.883
505.97	28.955
506.31	28.989
506.66	29.035
507.01	29.023
507.36	29.086
507.70	29.055
508.05	29.064
508.40	29.062
508.74	29.026
509.09	29.021
509.44	29.017
509.79	28.956
510.13	28.947
510.48	29.050
510.83	28.908
511.17	28.881
511.52	28.903
511.87	28.893
512.21	28.865
512.56	28.896
512.91	28.873
513.25	28.971
513.60	28.888
513.95	28.954
514.29	29.006
514.64	29.042
514.98	29.057
515.33	29.154
515.68	29.142
516.02	29.166
516.37	29.195
516.72	29.224
517.06	29.327
517.41	29.324
517.75	29.406
518.10	29.399
518.45	29.432
518.79	29.469
519.14	29.489
519.48	29.465
519.83	29.485
520.18	29.575
520.52	29.576
520.87	29.574
521.21	29.578
521.56	29.606
521.90	29.558
522.25	29.560
522.60	29.571
522.94	29.567
523.29	29.565
523.63	29.547
523.98	29.558
524.32	29.535
524.67	29.587
525.01	29.447
525.36	29.522
525.70	29.420
526.05	29.438
526.39	29.374
526.74	29.322
527.08	29.308
527.43	29.204
527.77	29.183
528.12	29.090
528.46	29.051
528.81	28.930
529.15	28.910
529.50	28.841
529.84	28.729
530.19	28.594
530.53	28.501
530.88	28.425
531.22	28.297
531.57	28.186
531.91	28.099
532.26	27.967
532.60	27.781
532.94	27.650
533.29	27.513
533.63	27.400
533.98	27.159
534.32	27.008
534.67	26.874
535.01	26.656
535.35	26.471
535.70	26.292
536.04	26.107
536.39	25.952
536.73	25.668
537.07	25.458
537.42	25.309
537.76	25.056
538.11	24.863
538.45	24.642
538.79	24.445
539.14	24.250
539.48	24.064
539.82	23.892
540.17	23.666
540.51	23.469
540.85	23.326
541.20	23.140
541.54	22.930
541.89	22.841
542.23	22.694
542.57	22.590
542.92	22.467
543.26	22.322
543.60	22.300
543.94	22.223
544.29	22.115
544.63	22.012
544.97	22.013
545.32	21.990
545.66	21.957
546.00	21.886
546.35	21.945
546.69	21.892
547.03	21.881
547.37	21.926
547.72	21.923
548.06	21.990
548.40	21.976
548.75	22.073
549.09	22.118
549.43	22.192
549.77	22.284
550.12	22.313
550.46	22.415
550.80	22.465
551.14	22.554
551.49	22.652
551.83	22.777
552.17	22.919
552.51	23.107
552.85	23.184
553.20	23.321
553.54	23.530
553.88	23.650
554.22	23.853
554.56	24.023
554.91	24.282
555.25	24.448
555.59	24.649
555.93	24.909
556.27	25.082
556.62	25.305
556.96	25.566
557.30	25.760
557.64	26.000
557.98	26.234
558.32	26.590
558.67	26.768
559.01	27.000
559.35	27.193
559.69	27.470
560.03	27.693
560.37	27.936
560.71	28.167
561.05	28.384
561.40	28.590
561.74	28.829
562.08	28.985
562.42	29.240
562.76	29.399
563.10	29.594
563.44	29.777
563.78	29.908
564.12	30.090
564.46	30.234
564.81	30.395
565.15	30.478
565.49	30.647
565.83	30.827
566.17	30.869
566.51	30.984
566.85	31.099
567.19	31.120
567.53	31.240
567.87	31.339
568.21	31.352
568.55	31.347
568.89	31.410
569.23	31.471
569.57	31.396
569.91	31.464
570.25	31.463
570.59	31.468
570.93	31.422
571.27	31.414
571.61	31.321
571.95	31.346
572.29	31.249
572.63	31.136
572.97	31.168
573.31	31.171
573.65	30.988
573.99	30.943
574.33	30.861
574.67	30.732
575.01	30.631
575.35	30.583
575.69	30.443
576.03	30.358
576.37	30.206
576.71	30.052
577.05	29.971
577.39	29.797
577.73	29.642
578.06	29.491
578.40	29.325
578.74	29.153
579.08	29.010
579.42	28.888
579.76	28.697
580.10	28.506
580.44	28.305
580.78	28.116
581.12	27.903
581.45	27.693
581.79	27.544
582.13	27.296
582.47	27.173
582.81	26.959
583.15	26.807
583.49	26.583
583.83	26.503
584.16	26.262
584.50	26.194
584.84	26.043
585.18	25.880
585.52	25.683
585.86	25.563
586.19	25.380
586.53	25.354
586.87	25.187
587.21	24.980
587.55	24.819
587.88	24.725
588.22	24.554
588.56	24.346
588.90	24.181
589.24	23.997
589.57	23.851
589.91	23.730
590.25	23.470
590.59	23.251
590.92	23.096
591.26	22.821
591.60	22.671
591.94	22.408
592.27	22.151
592.61	21.952
592.95	21.660
593.29	21.462
593.62	21.157
593.96	20.919
594.30	20.602
594.64	20.275
594.97	19.990
595.31	19.606
595.65	19.280
595.98	18.916
596.32	18.588
596.66	18.170
597.00	17.746
597.33	17.322
597.67	16.923
598.01	16.518
598.34	16.034
598.68	15.647
599.02	15.187
599.35	14.772
599.69	14.392
600.03	14.028
600.36	13.665
600.70	13.295
601.03	12.974
601.37	12.736
601.71	12.414
602.04	12.109
602.38	11.837
602.72	11.606
603.05	11.347
603.39	11.090
603.72	10.867
604.06	10.583
604.40	10.382
604.73	10.098
605.07	9.876
605.40	9.605
605.74	9.359
606.08	9.071
606.41	8.798
606.75	8.529
607.08	8.285
607.42	8.059
607.75	7.772
608.09	7.541
608.42	7.306
608.76	7.032
609.10	6.759
609.43	6.509
609.77	6.256
610.10	5.988
610.44	5.734
610.77	5.531
611.11	5.280
611.44	5.069
611.78	4.817
612.11	4.575
612.45	4.399
612.78	4.196
613.12	3.983
613.45	3.778
613.79	3.605
614.12	3.430
614.46	3.243
614.79	3.098
615.13	2.938
615.46	2.797
615.79	2.676
616.13	2.510
616.46	2.423
616.80	2.266
617.13	2.189
617.47	2.094
617.80	2.018
618.13	1.945
618.47	1.843
618.80	1.798
619.14	1.707
619.47	1.640
619.81	1.593
620.14	1.531
620.47	1.487
620.81	1.433
621.14	1.353
621.47	1.340
621.81	1.280
622.14	1.254
622.48	1.207
622.81	1.165
623.14	1.138
623.48	1.142
623.81	1.097
624.14	1.053
624.48	1.024
624.81	1.011
625.14	1.004
625.48	0.984
625.81	0.968
626.14	0.955
626.48	0.948
626.81	0.952
627.14	0.951
627.48	0.963
627.81	0.974
628.14	0.993
628.47	1.014
628.81	1.000
629.14	1.022
629.47	1.074
629.81	1.076
630.14	1.117
630.47	1.166
630.80	1.209
631.14	1.299
