SpectraSuite Data File
++++++++++++++++++++++++++++++++++++
Date: Thu Apr 23 21:22:29 BST 2015
User: mpfc3
Dark Spectrum Present: Yes
Reference Spectrum Present: Yes
Number of Sampled Component Spectra: 1
Spectrometers: USB2E3636
Integration Time (usec): 30000 (USB2E3636)
Spectra Averaged: 100 (USB2E3636)
Boxcar Smoothing: 0 (USB2E3636)
Correct for Electrical Dark: No (USB2E3636)
Strobe/Lamp Enabled: No (USB2E3636)
Correct for Detector Non-linearity: No (USB2E3636)
Correct for Stray Light: No (USB2E3636)
Number of Pixels in Processed Spectrum: 2048
>>>>>Begin Processed Spectral Data<<<<<
180.28	0.000
180.65	650.000
181.02	444.172
181.39	593.277
181.77	1333.333
182.14	598.333
182.51	446.784
182.88	818.605
183.25	618.261
183.63	2238.710
184.00	912.500
184.37	771.264
184.74	570.833
185.11	578.519
185.49	1821.053
185.86	320.588
186.23	452.381
186.60	496.053
186.97	439.759
187.35	725.532
187.72	650.000
188.09	1177.586
188.46	579.845
188.83	494.631
189.20	-187.339
189.58	-26.211
189.95	-27.814
190.32	-28.207
190.69	-30.310
191.06	-30.700
191.43	-28.063
191.81	-29.951
192.18	-31.291
192.55	-29.989
192.92	-31.743
193.29	-29.544
193.66	-31.141
194.03	-25.951
194.41	-27.629
194.78	-27.243
195.15	-27.489
195.52	-29.227
195.89	-30.526
196.26	-26.277
196.63	-28.031
197.01	-33.444
197.38	-26.220
197.75	-27.705
198.12	-23.483
198.49	-33.258
198.86	-28.749
199.23	-29.440
199.60	-31.733
199.98	-31.985
200.35	-27.371
200.72	-33.961
201.09	-28.327
201.46	-30.863
201.83	-27.521
202.20	-30.852
202.57	-30.673
202.94	-31.349
203.31	-30.705
203.69	-32.220
204.06	-33.753
204.43	-31.029
204.80	-32.496
205.17	-31.322
205.54	-34.773
205.91	-30.484
206.28	-29.178
206.65	-29.832
207.02	-31.000
207.39	-29.356
207.76	-33.821
208.14	-33.614
208.51	-33.199
208.88	-28.603
209.25	-28.367
209.62	-35.030
209.99	-32.737
210.36	-31.609
210.73	-30.748
211.10	-35.986
211.47	-33.314
211.84	-31.570
212.21	-30.602
212.58	-36.385
212.95	-35.291
213.32	-35.814
213.69	-37.485
214.06	-37.215
214.43	-30.533
214.80	-31.974
215.17	-34.118
215.55	-34.991
215.92	-31.091
216.29	-34.483
216.66	-33.234
217.03	-33.796
217.40	-37.608
217.77	-31.466
218.14	-35.056
218.51	-35.287
218.88	-35.037
219.25	-34.817
219.62	-33.907
219.99	-36.142
220.36	-42.157
220.73	-26.486
221.10	-36.323
221.47	-33.516
221.84	-38.644
222.21	-37.035
222.58	-34.017
222.95	-36.849
223.32	-35.078
223.69	-36.648
224.06	-38.331
224.43	-37.476
224.80	-41.853
225.17	-36.846
225.54	-35.946
225.91	-40.667
226.27	-32.334
226.64	-39.974
227.01	-34.465
227.38	-45.734
227.75	-38.442
228.12	-36.693
228.49	-38.036
228.86	-37.020
229.23	-35.583
229.60	-43.570
229.97	-47.072
230.34	-43.691
230.71	-34.545
231.08	-39.895
231.45	-39.310
231.82	-41.475
232.19	-37.278
232.56	-40.449
232.93	-38.955
233.30	-42.516
233.66	-38.835
234.03	-45.170
234.40	-40.241
234.77	-45.228
235.14	-38.862
235.51	-38.527
235.88	-41.123
236.25	-42.788
236.62	-39.040
236.99	-44.972
237.36	-40.592
237.73	-44.953
238.09	-37.926
238.46	-43.065
238.83	-40.636
239.20	-40.919
239.57	-46.148
239.94	-43.513
240.31	-46.165
240.68	-45.147
241.05	-41.562
241.41	-41.859
241.78	-42.133
242.15	-43.491
242.52	-51.769
242.89	-39.552
243.26	-47.767
243.63	-48.303
244.00	-38.781
244.36	-47.726
244.73	-40.556
245.10	-42.941
245.47	-46.415
245.84	-43.807
246.21	-46.545
246.58	-42.699
246.94	-45.719
247.31	-34.150
247.68	-38.988
248.05	-37.762
248.42	-45.245
248.79	-38.926
249.15	-45.609
249.52	-47.073
249.89	-46.249
250.26	-49.921
250.63	-43.105
251.00	-44.934
251.36	-50.912
251.73	-39.623
252.10	-56.356
252.47	-48.563
252.84	-48.506
253.20	-45.532
253.57	-53.013
253.94	-51.572
254.31	-43.434
254.68	-45.296
255.05	-51.020
255.41	-49.006
255.78	-49.513
256.15	-41.667
256.52	-47.480
256.88	-49.099
257.25	-38.361
257.62	-51.106
257.99	-44.244
258.36	-45.063
258.72	-50.519
259.09	-50.275
259.46	-40.821
259.83	-47.867
260.19	-41.797
260.56	-43.927
260.93	-45.217
261.30	-42.777
261.67	-52.453
262.03	-46.455
262.40	-44.496
262.77	-49.373
263.14	-40.563
263.50	-47.020
263.87	-49.718
264.24	-49.672
264.61	-45.372
264.97	-38.831
265.34	-47.720
265.71	-51.686
266.07	-48.954
266.44	-47.063
266.81	-54.983
267.18	-52.148
267.54	-50.413
267.91	-52.989
268.28	-45.179
268.64	-50.912
269.01	-44.003
269.38	-50.689
269.75	-50.948
270.11	-52.931
270.48	-52.265
270.85	-44.254
271.21	-48.913
271.58	-53.109
271.95	-46.015
272.32	-50.701
272.68	-46.465
273.05	-52.377
273.42	-51.361
273.78	-47.103
274.15	-47.151
274.52	-52.010
274.88	-48.797
275.25	-49.539
275.62	-53.575
275.98	-58.443
276.35	-50.121
276.72	-44.165
277.08	-47.646
277.45	-52.921
277.82	-51.530
278.18	-50.369
278.55	-45.906
278.92	-43.990
279.28	-50.000
279.65	-47.607
280.01	-45.959
280.38	-47.521
280.75	-51.201
281.11	-50.753
281.48	-44.136
281.85	-44.509
282.21	-42.005
282.58	-49.664
282.95	-48.332
283.31	-46.483
283.68	-41.827
284.04	-48.981
284.41	-48.602
284.78	-50.375
285.14	-43.881
285.51	-51.015
285.87	-48.056
286.24	-48.969
286.61	-52.233
286.97	-55.449
287.34	-48.622
287.70	-49.331
288.07	-51.340
288.44	-51.220
288.80	-49.355
289.17	-52.444
289.53	-48.562
289.90	-48.673
290.26	-53.553
290.63	-55.446
291.00	-49.595
291.36	-45.637
291.73	-45.911
292.09	-50.376
292.46	-43.003
292.82	-44.265
293.19	-48.816
293.56	-52.196
293.92	-53.015
294.29	-51.244
294.65	-41.738
295.02	-41.712
295.38	-45.761
295.75	-49.232
296.11	-50.587
296.48	-47.819
296.84	-47.178
297.21	-54.177
297.57	-42.130
297.94	-51.347
298.30	-45.707
298.67	-46.370
299.04	-46.259
299.40	-53.367
299.77	-42.694
300.13	-44.737
300.50	-45.462
300.86	-42.846
301.23	-46.314
301.59	-48.915
301.96	-44.326
302.32	-47.649
302.69	-48.096
303.05	-45.640
303.42	-45.462
303.78	-47.444
304.14	-41.061
304.51	-52.262
304.87	-45.236
305.24	-43.211
305.60	-46.610
305.97	-42.291
306.33	-39.637
306.70	-40.173
307.06	-43.150
307.43	-38.438
307.79	-42.133
308.16	-45.426
308.52	-44.261
308.88	-41.054
309.25	-43.830
309.61	-38.213
309.98	-42.538
310.34	-41.359
310.71	-42.090
311.07	-41.745
311.44	-44.128
311.80	-40.611
312.16	-50.658
312.53	-40.227
312.89	-41.625
313.26	-45.564
313.62	-38.807
313.98	-44.883
314.35	-35.302
314.71	-38.611
315.08	-39.018
315.44	-39.377
315.80	-35.517
316.17	-38.794
316.53	-31.589
316.90	-32.692
317.26	-32.895
317.62	-35.747
317.99	-41.216
318.35	-35.379
318.72	-28.814
319.08	-39.039
319.44	-33.693
319.81	-32.794
320.17	-35.637
320.53	-36.300
320.90	-29.565
321.26	-33.990
321.62	-30.445
321.99	-42.109
322.35	-30.535
322.72	-30.462
323.08	-34.130
323.44	-34.683
323.81	-34.841
324.17	-29.082
324.53	-33.333
324.90	-29.844
325.26	-32.598
325.62	-31.027
325.99	-34.589
326.35	-32.819
326.71	-31.203
327.08	-27.898
327.44	-29.714
327.80	-26.950
328.16	-29.833
328.53	-29.013
328.89	-29.282
329.25	-28.856
329.62	-19.687
329.98	-23.010
330.34	-25.081
330.71	-23.405
331.07	-24.107
331.43	-22.050
331.79	-22.710
332.16	-19.747
332.52	-21.721
332.88	-24.190
333.24	-20.442
333.61	-23.676
333.97	-24.501
334.33	-22.095
334.70	-22.049
335.06	-20.982
335.42	-23.102
335.78	-20.899
336.15	-20.171
336.51	-21.883
336.87	-18.582
337.23	-19.978
337.60	-17.728
337.96	-19.560
338.32	-19.892
338.68	-18.116
339.04	-15.128
339.41	-18.169
339.77	-15.692
340.13	-17.478
340.49	-17.072
340.86	-15.052
341.22	-18.282
341.58	-18.229
341.94	-15.289
342.30	-17.094
342.67	-16.228
343.03	-14.706
343.39	-16.539
343.75	-14.049
344.11	-14.517
344.48	-13.883
344.84	-14.030
345.20	-13.527
345.56	-13.801
345.92	-14.370
346.28	-13.407
346.65	-11.615
347.01	-10.457
347.37	-14.253
347.73	-13.641
348.09	-11.116
348.45	-12.082
348.82	-10.056
349.18	-11.362
349.54	-11.395
349.90	-10.377
350.26	-11.194
350.62	-9.822
350.98	-11.145
351.35	-9.780
351.71	-12.204
352.07	-9.958
352.43	-9.391
352.79	-9.975
353.15	-8.475
353.51	-9.953
353.87	-9.390
354.24	-9.161
354.60	-11.186
354.96	-8.222
355.32	-8.504
355.68	-8.704
356.04	-7.375
356.40	-7.948
356.76	-8.396
357.12	-8.818
357.48	-7.783
357.85	-8.432
358.21	-7.916
358.57	-7.321
358.93	-7.491
359.29	-8.006
359.65	-6.346
360.01	-7.491
360.37	-7.227
360.73	-7.230
361.09	-6.199
361.45	-6.474
361.81	-6.507
362.17	-6.962
362.53	-6.197
362.89	-6.952
363.25	-7.079
363.62	-6.395
363.98	-6.470
364.34	-6.787
364.70	-6.214
365.06	-5.317
365.42	-5.744
365.78	-5.022
366.14	-5.527
366.50	-5.215
366.86	-5.708
367.22	-5.207
367.58	-5.971
367.94	-4.542
368.30	-5.019
368.66	-4.175
369.02	-4.918
369.38	-4.804
369.74	-4.768
370.10	-5.255
370.46	-4.202
370.82	-4.304
371.18	-4.149
371.54	-4.301
371.90	-3.633
372.26	-4.910
372.62	-4.234
372.98	-3.648
373.33	-3.664
373.69	-4.229
374.05	-3.515
374.41	-3.786
374.77	-4.046
375.13	-3.167
375.49	-2.910
375.85	-3.957
376.21	-2.894
376.57	-3.204
376.93	-3.212
377.29	-2.739
377.65	-3.125
378.01	-2.835
378.37	-2.743
378.73	-2.422
379.08	-2.600
379.44	-2.475
379.80	-2.523
380.16	-1.857
380.52	-2.183
380.88	-2.607
381.24	-2.199
381.60	-1.872
381.96	-2.324
382.32	-1.853
382.67	-1.195
383.03	-1.815
383.39	-1.420
383.75	-1.096
384.11	-1.205
384.47	-0.830
384.83	-1.287
385.19	-0.748
385.54	-0.983
385.90	-0.905
386.26	-0.547
386.62	-0.702
386.98	-0.221
387.34	-0.058
387.70	-0.127
388.05	0.000
388.41	0.639
388.77	0.068
389.13	0.386
389.49	0.158
389.85	0.377
390.20	1.071
390.56	0.874
390.92	0.937
391.28	1.056
391.64	1.139
391.99	1.185
392.35	1.389
392.71	1.698
393.07	1.642
393.43	1.967
393.78	1.808
394.14	2.586
394.50	2.618
394.86	2.554
395.22	2.365
395.57	2.532
395.93	2.880
396.29	2.922
396.65	2.850
397.00	3.367
397.36	3.357
397.72	3.146
398.08	3.286
398.43	3.397
398.79	4.123
399.15	3.790
399.51	4.089
399.86	4.341
400.22	4.413
400.58	3.935
400.94	4.749
401.29	4.258
401.65	4.574
402.01	4.944
402.37	5.020
402.72	5.018
403.08	5.356
403.44	5.390
403.79	5.654
404.15	5.790
404.51	5.585
404.86	6.097
405.22	6.018
405.58	5.991
405.94	6.003
406.29	6.314
406.65	6.464
407.01	6.488
407.36	6.688
407.72	6.997
408.08	7.044
408.43	6.953
408.79	7.495
409.15	7.124
409.50	7.569
409.86	7.592
410.22	7.767
410.57	7.698
410.93	8.018
411.29	8.407
411.64	8.130
412.00	8.345
412.35	8.512
412.71	8.594
413.07	8.903
413.42	9.005
413.78	8.990
414.14	9.243
414.49	9.214
414.85	9.381
415.20	9.442
415.56	9.587
415.92	9.489
416.27	9.930
416.63	9.877
416.98	10.155
417.34	10.345
417.70	10.396
418.05	10.635
418.41	10.619
418.76	10.730
419.12	10.588
419.47	11.197
419.83	11.185
420.19	11.298
420.54	11.271
420.90	11.412
421.25	11.561
421.61	11.771
421.96	11.723
422.32	11.958
422.67	12.017
423.03	12.104
423.39	12.124
423.74	12.194
424.10	12.501
424.45	12.627
424.81	12.762
425.16	12.789
425.52	12.717
425.87	12.855
426.23	13.086
426.58	13.215
426.94	13.146
427.29	13.565
427.65	13.538
428.00	13.632
428.36	13.766
428.71	13.938
429.07	14.007
429.42	14.164
429.78	14.095
430.13	14.349
430.49	14.494
430.84	14.459
431.19	14.621
431.55	14.715
431.90	14.794
432.26	14.905
432.61	15.099
432.97	15.149
433.32	15.380
433.68	15.393
434.03	15.326
434.39	15.669
434.74	15.627
435.09	15.669
435.45	15.812
435.80	15.867
436.16	16.124
436.51	16.147
436.86	16.281
437.22	16.309
437.57	16.566
437.93	16.583
438.28	16.708
438.63	16.665
438.99	16.827
439.34	16.869
439.70	17.140
440.05	17.058
440.40	17.184
440.76	17.227
441.11	17.313
441.47	17.420
441.82	17.543
442.17	17.534
442.53	17.594
442.88	17.835
443.23	17.879
443.59	17.981
443.94	18.041
444.29	18.056
444.65	18.412
445.00	18.346
445.35	18.351
445.71	18.500
446.06	18.629
446.41	18.706
446.77	18.761
447.12	18.816
447.47	18.904
447.83	19.161
448.18	19.156
448.53	19.291
448.89	19.272
449.24	19.482
449.59	19.412
449.94	19.567
450.30	19.528
450.65	19.823
451.00	19.792
451.36	19.868
451.71	20.024
452.06	20.217
452.41	20.148
452.77	20.348
453.12	20.346
453.47	20.486
453.82	20.578
454.18	20.563
454.53	20.761
454.88	20.868
455.23	20.905
455.59	20.873
455.94	21.088
456.29	21.233
456.64	21.186
457.00	21.315
457.35	21.457
457.70	21.551
458.05	21.575
458.40	21.755
458.76	21.837
459.11	21.955
459.46	21.947
459.81	22.029
460.16	22.109
460.52	22.231
460.87	22.303
461.22	22.386
461.57	22.461
461.92	22.545
462.28	22.653
462.63	22.621
462.98	22.862
463.33	22.815
463.68	22.973
464.03	23.072
464.38	23.048
464.74	23.137
465.09	23.214
465.44	23.342
465.79	23.392
466.14	23.518
466.49	23.576
466.84	23.530
467.20	23.668
467.55	23.760
467.90	23.828
468.25	24.059
468.60	24.001
468.95	24.016
469.30	24.083
469.65	24.066
470.00	24.228
470.36	24.258
470.71	24.333
471.06	24.242
471.41	24.532
471.76	24.507
472.11	24.516
472.46	24.553
472.81	24.588
473.16	24.723
473.51	24.697
473.86	24.810
474.21	24.809
474.56	24.884
474.91	24.863
475.26	24.866
475.62	24.929
475.97	25.004
476.32	24.920
476.67	24.970
477.02	25.011
477.37	25.115
477.72	25.118
478.07	25.016
478.42	24.954
478.77	25.002
479.12	25.027
479.47	25.067
479.82	25.069
480.17	25.084
480.52	25.088
480.87	25.095
481.22	25.097
481.57	25.129
481.92	25.127
482.27	25.080
482.62	25.167
482.97	25.174
483.32	25.217
483.67	25.265
484.02	25.169
484.36	25.153
484.71	25.225
485.06	25.281
485.41	25.202
485.76	25.336
486.11	25.370
486.46	25.303
486.81	25.376
487.16	25.410
487.51	25.497
487.86	25.589
488.21	25.670
488.56	25.627
488.91	25.690
489.25	25.785
489.60	25.810
489.95	25.890
490.30	25.983
490.65	26.049
491.00	26.067
491.35	26.131
491.70	26.193
492.05	26.293
492.39	26.357
492.74	26.424
493.09	26.529
493.44	26.589
493.79	26.638
494.14	26.686
494.49	26.689
494.83	26.864
495.18	26.939
495.53	27.031
495.88	27.055
496.23	27.190
496.58	27.206
496.92	27.354
497.27	27.433
497.62	27.474
497.97	27.513
498.32	27.586
498.67	27.721
499.01	27.823
499.36	27.876
499.71	27.936
500.06	28.021
500.41	28.047
500.75	28.109
501.10	28.169
501.45	28.275
501.80	28.283
502.14	28.365
502.49	28.419
502.84	28.581
503.19	28.553
503.53	28.621
503.88	28.633
504.23	28.680
504.58	28.759
504.92	28.762
505.27	28.860
505.62	28.923
505.97	28.958
506.31	28.926
506.66	28.977
507.01	29.040
507.36	29.050
507.70	29.012
508.05	29.027
508.40	29.036
508.74	28.993
509.09	29.049
509.44	28.981
509.79	28.956
510.13	28.926
510.48	28.936
510.83	28.928
511.17	28.915
511.52	28.855
511.87	28.826
512.21	28.843
512.56	28.849
512.91	28.853
513.25	28.904
513.60	28.875
513.95	28.934
514.29	29.004
514.64	29.005
514.98	29.058
515.33	29.086
515.68	29.172
516.02	29.176
516.37	29.183
516.72	29.306
517.06	29.274
517.41	29.329
517.75	29.384
518.10	29.396
518.45	29.370
518.79	29.423
519.14	29.420
519.48	29.446
519.83	29.444
520.18	29.488
520.52	29.482
520.87	29.585
521.21	29.567
521.56	29.590
521.90	29.534
522.25	29.556
522.60	29.539
522.94	29.589
523.29	29.612
523.63	29.548
523.98	29.533
524.32	29.518
524.67	29.557
525.01	29.479
525.36	29.408
525.70	29.433
526.05	29.410
526.39	29.329
526.74	29.259
527.08	29.234
527.43	29.163
527.77	29.176
528.12	29.100
528.46	29.010
528.81	28.948
529.15	28.914
529.50	28.801
529.84	28.738
530.19	28.605
530.53	28.488
530.88	28.339
531.22	28.276
531.57	28.167
531.91	28.079
532.26	27.932
532.60	27.798
532.94	27.592
533.29	27.500
533.63	27.383
533.98	27.186
534.32	27.007
534.67	26.844
535.01	26.659
535.35	26.441
535.70	26.283
536.04	26.094
536.39	25.826
536.73	25.614
537.07	25.423
537.42	25.264
537.76	25.066
538.11	24.836
538.45	24.603
538.79	24.409
539.14	24.159
539.48	24.007
539.82	23.842
540.17	23.613
540.51	23.479
540.85	23.301
541.20	23.118
541.54	22.915
541.89	22.853
542.23	22.682
542.57	22.546
542.92	22.460
543.26	22.304
543.60	22.224
543.94	22.205
544.29	22.094
544.63	21.985
544.97	21.959
545.32	21.969
545.66	21.887
546.00	21.908
546.35	21.885
546.69	21.817
547.03	21.906
547.37	21.902
547.72	21.877
548.06	21.926
548.40	21.962
548.75	22.059
549.09	22.078
549.43	22.146
549.77	22.212
550.12	22.257
550.46	22.336
550.80	22.436
551.14	22.495
551.49	22.653
551.83	22.769
552.17	22.916
552.51	22.990
552.85	23.167
553.20	23.316
553.54	23.481
553.88	23.627
554.22	23.777
554.56	24.061
554.91	24.280
555.25	24.462
555.59	24.599
555.93	24.872
556.27	25.081
556.62	25.349
556.96	25.511
557.30	25.711
557.64	25.937
557.98	26.221
558.32	26.445
558.67	26.728
559.01	26.906
559.35	27.129
559.69	27.420
560.03	27.620
560.37	27.938
560.71	28.119
561.05	28.315
561.40	28.543
561.74	28.780
562.08	28.923
562.42	29.195
562.76	29.374
563.10	29.521
563.44	29.748
563.78	29.913
564.12	30.024
564.46	30.225
564.81	30.305
565.15	30.447
565.49	30.565
565.83	30.717
566.17	30.830
566.51	30.986
566.85	31.015
567.19	31.113
567.53	31.216
567.87	31.297
568.21	31.301
568.55	31.289
568.89	31.359
569.23	31.427
569.57	31.384
569.91	31.346
570.25	31.392
570.59	31.415
570.93	31.402
571.27	31.371
571.61	31.324
571.95	31.308
572.29	31.251
572.63	31.195
572.97	31.142
573.31	31.074
573.65	30.975
573.99	30.927
574.33	30.861
574.67	30.683
575.01	30.600
575.35	30.540
575.69	30.366
576.03	30.323
576.37	30.162
576.71	30.050
577.05	29.910
577.39	29.800
577.73	29.642
578.06	29.457
578.40	29.322
578.74	29.175
579.08	28.939
579.42	28.820
579.76	28.641
580.10	28.449
580.44	28.220
580.78	28.108
581.12	27.929
581.45	27.653
581.79	27.480
582.13	27.317
582.47	27.129
582.81	26.965
583.15	26.767
583.49	26.596
583.83	26.426
584.16	26.203
584.50	26.095
584.84	25.985
585.18	25.818
585.52	25.656
585.86	25.515
586.19	25.381
586.53	25.289
586.87	25.120
587.21	24.973
587.55	24.781
587.88	24.684
588.22	24.552
588.56	24.295
588.90	24.156
589.24	23.933
589.57	23.779
589.91	23.647
590.25	23.426
590.59	23.255
590.92	23.050
591.26	22.783
591.60	22.554
591.94	22.389
592.27	22.115
592.61	21.845
592.95	21.658
593.29	21.387
593.62	21.122
593.96	20.884
594.30	20.569
594.64	20.265
594.97	19.958
595.31	19.584
595.65	19.273
595.98	18.936
596.32	18.540
596.66	18.135
597.00	17.736
597.33	17.372
597.67	16.865
598.01	16.452
598.34	16.022
598.68	15.623
599.02	15.204
599.35	14.807
599.69	14.404
600.03	14.008
600.36	13.654
600.70	13.286
601.03	12.977
601.37	12.713
601.71	12.419
602.04	12.114
602.38	11.862
602.72	11.580
603.05	11.370
603.39	11.091
603.72	10.836
604.06	10.548
604.40	10.342
604.73	10.109
605.07	9.879
605.40	9.591
605.74	9.346
606.08	9.079
606.41	8.782
606.75	8.542
607.08	8.302
607.42	8.014
607.75	7.804
608.09	7.526
608.42	7.267
608.76	6.990
609.10	6.722
609.43	6.465
609.77	6.238
610.10	6.031
610.44	5.751
610.77	5.514
611.11	5.262
611.44	5.031
611.78	4.802
612.11	4.608
612.45	4.394
612.78	4.167
613.12	3.976
613.45	3.780
613.79	3.618
614.12	3.416
614.46	3.261
614.79	3.103
615.13	2.927
615.46	2.774
615.79	2.657
616.13	2.502
616.46	2.416
616.80	2.285
617.13	2.197
617.47	2.091
617.80	2.024
618.13	1.954
618.47	1.841
618.80	1.806
619.14	1.681
619.47	1.630
619.81	1.591
620.14	1.532
620.47	1.473
620.81	1.430
621.14	1.363
621.47	1.332
621.81	1.276
622.14	1.252
622.48	1.225
622.81	1.166
623.14	1.129
623.48	1.124
623.81	1.080
624.14	1.038
624.48	1.035
624.81	1.021
625.14	0.983
625.48	0.992
625.81	0.977
626.14	0.954
626.48	0.982
626.81	0.951
627.14	0.985
627.48	0.982
627.81	0.974
628.14	0.968
628.47	0.995
628.81	0.999
629.14	1.028
629.47	1.059
629.81	1.091
630.14	1.119
630.47	1.165
630.80	1.205
631.14	1.253
