SpectraSuite Data File
++++++++++++++++++++++++++++++++++++
Date: Thu Apr 23 21:17:52 BST 2015
User: mpfc3
Dark Spectrum Present: Yes
Reference Spectrum Present: Yes
Number of Sampled Component Spectra: 1
Spectrometers: USB2E3636
Integration Time (usec): 30000 (USB2E3636)
Spectra Averaged: 100 (USB2E3636)
Boxcar Smoothing: 0 (USB2E3636)
Correct for Electrical Dark: No (USB2E3636)
Strobe/Lamp Enabled: No (USB2E3636)
Correct for Detector Non-linearity: No (USB2E3636)
Correct for Stray Light: No (USB2E3636)
Number of Pixels in Processed Spectrum: 2048
>>>>>Begin Processed Spectral Data<<<<<
180.28	0.000
180.65	560.784
181.02	370.552
181.39	558.824
181.77	1068.627
182.14	545.833
182.51	372.515
182.88	718.605
183.25	518.261
183.63	1738.710
184.00	768.750
184.37	662.069
184.74	528.333
185.11	471.852
185.49	1584.211
185.86	302.101
186.23	367.857
186.60	445.395
186.97	359.639
187.35	675.532
187.72	510.000
188.09	1070.690
188.46	496.124
188.83	402.013
189.20	-140.568
189.58	-23.263
189.95	-23.106
190.32	-24.431
190.69	-25.664
191.06	-21.156
191.43	-27.243
191.81	-25.150
192.18	-25.325
192.55	-24.512
192.92	-22.145
193.29	-22.515
193.66	-25.054
194.03	-22.939
194.41	-21.996
194.78	-22.512
195.15	-24.080
195.52	-23.177
195.89	-27.424
196.26	-20.266
196.63	-20.735
197.01	-24.628
197.38	-20.145
197.75	-21.275
198.12	-20.921
198.49	-27.658
198.86	-21.197
199.23	-22.605
199.60	-25.828
199.98	-26.189
200.35	-23.222
200.72	-24.432
201.09	-25.227
201.46	-26.493
201.83	-22.586
202.20	-23.567
202.57	-22.096
202.94	-24.795
203.31	-21.293
203.69	-24.096
204.06	-23.796
204.43	-25.940
204.80	-27.527
205.17	-26.111
205.54	-24.352
205.91	-23.818
206.28	-27.139
206.65	-23.119
207.02	-25.278
207.39	-23.307
207.76	-23.185
208.14	-23.457
208.51	-27.455
208.88	-24.040
209.25	-22.265
209.62	-27.456
209.99	-23.408
210.36	-28.121
210.73	-22.091
211.10	-31.257
211.47	-27.400
211.84	-23.256
212.21	-26.590
212.58	-29.711
212.95	-29.299
213.32	-27.586
213.69	-28.736
214.06	-28.451
214.43	-26.746
214.80	-25.296
215.17	-22.824
215.55	-25.476
215.92	-25.546
216.29	-31.034
216.66	-23.900
217.03	-30.356
217.40	-26.942
217.77	-24.791
218.14	-24.427
218.51	-29.304
218.88	-28.448
219.25	-26.398
219.62	-28.256
219.99	-26.129
220.36	-34.183
220.73	-21.424
221.10	-33.206
221.47	-24.878
221.84	-30.006
222.21	-33.825
222.58	-25.560
222.95	-27.730
223.32	-24.735
223.69	-30.210
224.06	-29.270
224.43	-27.024
224.80	-31.340
225.17	-29.954
225.54	-29.700
225.91	-32.933
226.27	-20.855
226.64	-30.883
227.01	-23.959
227.38	-33.147
227.75	-27.650
228.12	-29.249
228.49	-28.285
228.86	-27.586
229.23	-25.950
229.60	-33.858
229.97	-42.192
230.34	-30.597
230.71	-28.636
231.08	-30.217
231.45	-34.100
231.82	-32.273
232.19	-30.643
232.56	-30.863
232.93	-34.983
233.30	-35.864
233.66	-30.583
234.03	-35.511
234.40	-29.612
234.77	-35.977
235.14	-32.467
235.51	-30.949
235.88	-32.982
236.25	-29.820
236.62	-33.681
236.99	-35.127
237.36	-30.937
237.73	-34.786
238.09	-31.106
238.46	-32.534
238.83	-32.438
239.20	-32.081
239.57	-37.417
239.94	-35.341
240.31	-36.504
240.68	-34.926
241.05	-32.646
241.41	-33.573
241.78	-36.987
242.15	-36.719
242.52	-42.154
242.89	-38.033
243.26	-37.850
243.63	-37.906
244.00	-31.900
244.36	-38.484
244.73	-31.076
245.10	-33.088
245.47	-36.955
245.84	-33.006
246.21	-38.724
246.58	-33.333
246.94	-38.099
247.31	-34.006
247.68	-28.083
248.05	-32.347
248.42	-38.957
248.79	-35.467
249.15	-35.824
249.52	-39.003
249.89	-32.792
250.26	-39.082
250.63	-37.227
251.00	-39.056
251.36	-36.638
251.73	-35.196
252.10	-42.186
252.47	-37.821
252.84	-38.467
253.20	-39.316
253.57	-44.055
253.94	-37.893
254.31	-31.842
254.68	-40.791
255.05	-42.204
255.41	-37.391
255.78	-41.640
256.15	-36.651
256.52	-40.472
256.88	-39.389
257.25	-32.236
257.62	-39.968
257.99	-39.233
258.36	-34.875
258.72	-39.665
259.09	-46.027
259.46	-35.554
259.83	-35.997
260.19	-35.781
260.56	-35.804
260.93	-39.526
261.30	-42.937
261.67	-45.262
262.03	-37.781
262.40	-38.486
262.77	-36.599
263.14	-30.898
263.50	-42.204
263.87	-41.579
264.24	-42.118
264.61	-38.926
264.97	-33.733
265.34	-33.176
265.71	-40.809
266.07	-40.586
266.44	-40.794
266.81	-40.709
267.18	-42.628
267.54	-39.274
267.91	-40.307
268.28	-35.458
268.64	-38.889
269.01	-34.454
269.38	-34.550
269.75	-38.362
270.11	-46.566
270.48	-42.198
270.85	-37.164
271.21	-40.886
271.58	-42.605
271.95	-40.189
272.32	-40.148
272.68	-34.472
273.05	-43.036
273.42	-40.476
273.78	-37.531
274.15	-38.728
274.52	-45.192
274.88	-41.328
275.25	-38.223
275.62	-44.395
275.98	-47.769
276.35	-39.243
276.72	-35.981
277.08	-42.695
277.45	-43.156
277.82	-35.815
278.18	-41.687
278.55	-37.480
278.92	-37.500
279.28	-36.946
279.65	-37.875
280.01	-40.735
280.38	-37.355
280.75	-42.710
281.11	-42.977
281.48	-36.054
281.85	-38.519
282.21	-41.448
282.58	-42.701
282.95	-36.859
283.31	-34.681
283.68	-35.577
284.04	-38.957
284.41	-36.349
284.78	-42.285
285.14	-33.977
285.51	-41.540
285.87	-38.958
286.24	-29.761
286.61	-42.797
286.97	-43.854
287.34	-41.688
287.70	-42.642
288.07	-38.749
288.44	-40.286
288.80	-42.218
289.17	-41.259
289.53	-41.540
289.90	-36.042
290.26	-44.541
290.63	-40.099
291.00	-36.650
291.36	-40.272
291.73	-35.304
292.09	-40.936
292.46	-35.793
292.82	-37.318
293.19	-38.939
293.56	-41.639
293.92	-41.374
294.29	-42.952
294.65	-35.474
295.02	-33.857
295.38	-40.576
295.75	-38.238
296.11	-38.758
296.48	-41.070
296.84	-38.332
297.21	-44.531
297.57	-27.721
297.94	-40.067
298.30	-42.028
298.67	-32.787
299.04	-40.547
299.40	-42.893
299.77	-33.181
300.13	-39.314
300.50	-32.530
300.86	-31.567
301.23	-37.821
301.59	-42.487
301.96	-36.595
302.32	-36.335
302.69	-32.479
303.05	-37.979
303.42	-36.546
303.78	-37.700
304.14	-32.803
304.51	-40.468
304.87	-37.258
305.24	-34.434
305.60	-31.099
305.97	-34.508
306.33	-34.796
306.70	-26.278
307.06	-37.480
307.43	-32.207
307.79	-33.132
308.16	-37.442
308.52	-34.734
308.88	-33.853
309.25	-36.033
309.61	-30.105
309.98	-35.538
310.34	-33.333
310.71	-34.478
311.07	-33.309
311.44	-32.166
311.80	-33.552
312.16	-37.645
312.53	-29.495
312.89	-31.129
313.26	-30.827
313.62	-31.509
313.98	-36.988
314.35	-28.214
314.71	-28.611
315.08	-34.175
315.44	-28.116
315.80	-31.938
316.17	-29.541
316.53	-28.013
316.90	-26.989
317.26	-25.000
317.62	-30.151
317.99	-32.265
318.35	-25.849
318.72	-25.484
319.08	-35.047
319.44	-25.381
319.81	-23.895
320.17	-26.999
320.53	-29.641
320.90	-23.761
321.26	-23.775
321.62	-27.316
321.99	-31.821
322.35	-27.981
322.72	-23.121
323.08	-26.958
323.44	-27.876
323.81	-24.116
324.17	-27.652
324.53	-27.998
324.90	-25.737
325.26	-23.995
325.62	-27.340
325.99	-27.868
326.35	-26.641
326.71	-23.402
327.08	-22.393
327.44	-23.688
327.80	-19.003
328.16	-21.421
328.53	-21.732
328.89	-22.099
329.25	-23.137
329.62	-17.792
329.98	-20.183
330.34	-20.009
330.71	-21.983
331.07	-21.053
331.43	-16.150
331.79	-18.452
332.16	-19.662
332.52	-16.617
332.88	-20.240
333.24	-18.398
333.61	-18.297
333.97	-15.711
334.33	-17.203
334.70	-16.367
335.06	-13.949
335.42	-18.923
335.78	-18.099
336.15	-15.128
336.51	-16.241
336.87	-15.277
337.23	-13.915
337.60	-14.343
337.96	-15.016
338.32	-16.094
338.68	-12.802
339.04	-11.321
339.41	-15.060
339.77	-12.488
340.13	-13.231
340.49	-13.559
340.86	-10.950
341.22	-14.341
341.58	-13.122
341.94	-13.711
342.30	-12.851
342.67	-10.445
343.03	-10.882
343.39	-11.881
343.75	-11.205
344.11	-10.682
344.48	-11.200
344.84	-10.336
345.20	-11.159
345.56	-9.218
345.92	-10.704
346.28	-10.256
346.65	-8.667
347.01	-9.224
347.37	-9.939
347.73	-8.806
348.09	-8.601
348.45	-8.055
348.82	-6.471
349.18	-8.783
349.54	-9.185
349.90	-8.152
350.26	-8.125
350.62	-6.797
350.98	-9.065
351.35	-9.075
351.71	-8.030
352.07	-6.695
352.43	-6.807
352.79	-7.108
353.15	-6.412
353.51	-7.267
353.87	-7.607
354.24	-6.900
354.60	-7.521
354.96	-6.063
355.32	-6.341
355.68	-6.325
356.04	-6.152
356.40	-6.348
356.76	-7.471
357.12	-6.047
357.48	-6.122
357.85	-6.018
358.21	-5.768
358.57	-6.412
358.93	-5.904
359.29	-5.818
359.65	-5.785
360.01	-5.926
360.37	-5.444
360.73	-5.686
361.09	-5.038
361.45	-5.665
361.81	-5.386
362.17	-4.317
362.53	-5.179
362.89	-5.493
363.25	-5.663
363.62	-5.150
363.98	-5.127
364.34	-4.767
364.70	-4.426
365.06	-4.703
365.42	-3.886
365.78	-3.373
366.14	-4.219
366.50	-3.378
366.86	-3.912
367.22	-3.201
367.58	-4.272
367.94	-3.356
368.30	-3.077
368.66	-3.396
369.02	-3.629
369.38	-3.188
369.74	-3.974
370.10	-3.703
370.46	-3.527
370.82	-3.161
371.18	-2.830
371.54	-2.995
371.90	-2.405
372.26	-3.089
372.62	-2.789
372.98	-2.851
373.33	-3.153
373.69	-2.760
374.05	-2.148
374.41	-2.585
374.77	-2.735
375.13	-2.074
375.49	-2.217
375.85	-2.441
376.21	-2.193
376.57	-1.831
376.93	-2.209
377.29	-1.985
377.65	-2.092
378.01	-1.716
378.37	-1.831
378.73	-1.703
379.08	-1.284
379.44	-1.294
379.80	-1.626
380.16	-0.937
380.52	-1.154
380.88	-1.110
381.24	-1.220
381.60	-0.872
381.96	-1.395
382.32	-1.319
382.67	-0.836
383.03	-1.176
383.39	-0.569
383.75	-0.244
384.11	-1.028
384.47	-0.627
384.83	-0.671
385.19	0.233
385.54	-0.509
385.90	-0.317
386.26	0.000
386.62	-0.093
386.98	0.221
387.34	0.439
387.70	0.153
388.05	0.424
388.41	1.160
388.77	0.808
389.13	1.187
389.49	0.932
389.85	0.927
390.20	1.456
390.56	1.232
390.92	1.319
391.28	1.688
391.64	1.728
391.99	1.645
392.35	1.907
392.71	2.399
393.07	1.906
393.43	2.071
393.78	2.144
394.14	2.613
394.50	2.650
394.86	2.718
395.22	2.609
395.57	2.827
395.93	3.034
396.29	3.351
396.65	2.795
397.00	3.738
397.36	3.717
397.72	3.416
398.08	3.816
398.43	3.966
398.79	3.940
399.15	3.940
399.51	4.339
399.86	4.491
400.22	4.395
400.58	4.396
400.94	4.718
401.29	4.280
401.65	4.899
402.01	5.137
402.37	4.886
402.72	5.186
403.08	5.749
403.44	5.394
403.79	5.506
404.15	5.769
404.51	5.532
404.86	6.202
405.22	5.921
405.58	6.220
405.94	6.316
406.29	6.491
406.65	6.619
407.01	6.423
407.36	6.628
407.72	6.986
408.08	7.111
408.43	7.095
408.79	7.288
409.15	7.113
409.50	7.695
409.86	7.639
410.22	7.397
410.57	7.828
410.93	7.897
411.29	8.393
411.64	8.147
412.00	8.136
412.35	8.225
412.71	8.474
413.07	8.561
413.42	8.985
413.78	8.855
414.14	9.053
414.49	9.012
414.85	9.119
415.20	9.433
415.56	9.372
415.92	9.293
416.27	9.561
416.63	9.612
416.98	9.675
417.34	10.016
417.70	10.174
418.05	10.392
418.41	10.279
418.76	10.354
419.12	10.502
419.47	10.670
419.83	10.787
420.19	10.807
420.54	10.778
420.90	10.941
421.25	11.000
421.61	11.334
421.96	11.247
422.32	11.502
422.67	11.509
423.03	11.701
423.39	11.611
423.74	11.826
424.10	12.061
424.45	12.227
424.81	12.095
425.16	12.263
425.52	12.314
425.87	12.430
426.23	12.588
426.58	12.771
426.94	12.614
427.29	13.026
427.65	12.862
428.00	12.957
428.36	13.303
428.71	13.345
429.07	13.465
429.42	13.590
429.78	13.608
430.13	13.797
430.49	14.060
430.84	13.843
431.19	13.988
431.55	14.220
431.90	14.273
432.26	14.294
432.61	14.409
432.97	14.667
433.32	14.853
433.68	14.580
434.03	14.618
434.39	15.008
434.74	15.001
435.09	14.904
435.45	15.134
435.80	15.253
436.16	15.394
436.51	15.294
436.86	15.524
437.22	15.641
437.57	15.772
437.93	15.881
438.28	15.974
438.63	15.850
438.99	15.988
439.34	16.187
439.70	16.296
440.05	16.234
440.40	16.320
440.76	16.470
441.11	16.503
441.47	16.666
441.82	16.693
442.17	16.902
442.53	16.902
442.88	16.950
443.23	17.132
443.59	17.129
443.94	17.255
444.29	17.266
444.65	17.426
445.00	17.535
445.35	17.541
445.71	17.629
446.06	17.779
446.41	17.954
446.77	17.876
447.12	17.977
447.47	18.045
447.83	18.127
448.18	18.290
448.53	18.322
448.89	18.275
449.24	18.275
449.59	18.594
449.94	18.660
450.30	18.705
450.65	18.935
451.00	18.997
451.36	18.870
451.71	19.079
452.06	19.031
452.41	19.178
452.77	19.367
453.12	19.400
453.47	19.333
453.82	19.571
454.18	19.649
454.53	19.886
454.88	19.728
455.23	19.887
455.59	19.941
455.94	20.042
456.29	20.181
456.64	20.200
457.00	20.267
457.35	20.377
457.70	20.467
458.05	20.538
458.40	20.666
458.76	20.784
459.11	20.716
459.46	20.835
459.81	20.962
460.16	21.014
460.52	21.111
460.87	21.184
461.22	21.227
461.57	21.348
461.92	21.382
462.28	21.490
462.63	21.450
462.98	21.679
463.33	21.660
463.68	21.748
464.03	21.922
464.38	21.981
464.74	21.995
465.09	22.114
465.44	22.114
465.79	22.162
466.14	22.260
466.49	22.328
466.84	22.409
467.20	22.442
467.55	22.495
467.90	22.558
468.25	22.500
468.60	22.694
468.95	22.706
469.30	22.862
469.65	22.917
470.00	22.972
470.36	23.056
470.71	23.026
471.06	23.072
471.41	23.227
471.76	23.168
472.11	23.298
472.46	23.203
472.81	23.349
473.16	23.392
473.51	23.397
473.86	23.422
474.21	23.563
474.56	23.478
474.91	23.513
475.26	23.582
475.62	23.610
475.97	23.573
476.32	23.578
476.67	23.666
477.02	23.640
477.37	23.678
477.72	23.639
478.07	23.746
478.42	23.724
478.77	23.717
479.12	23.651
479.47	23.774
479.82	23.817
480.17	23.788
480.52	23.774
480.87	23.699
481.22	23.775
481.57	23.795
481.92	23.796
482.27	23.792
482.62	23.859
482.97	23.884
483.32	23.898
483.67	23.934
484.02	23.735
484.36	23.850
484.71	23.926
485.06	23.859
485.41	23.885
485.76	23.969
486.11	24.033
486.46	23.972
486.81	24.067
487.16	24.071
487.51	24.175
487.86	24.232
488.21	24.211
488.56	24.242
488.91	24.284
489.25	24.441
489.60	24.450
489.95	24.474
490.30	24.597
490.65	24.589
491.00	24.647
491.35	24.737
491.70	24.781
492.05	24.818
492.39	24.926
492.74	25.033
493.09	25.015
493.44	25.071
493.79	25.161
494.14	25.261
494.49	25.258
494.83	25.354
495.18	25.529
495.53	25.519
495.88	25.589
496.23	25.717
496.58	25.742
496.92	25.758
497.27	25.959
497.62	25.980
497.97	25.984
498.32	26.097
498.67	26.174
499.01	26.249
499.36	26.356
499.71	26.396
500.06	26.399
500.41	26.515
500.75	26.531
501.10	26.616
501.45	26.673
501.80	26.698
502.14	26.787
502.49	26.866
502.84	26.865
503.19	26.986
503.53	26.994
503.88	27.039
504.23	27.096
504.58	27.108
504.92	27.244
505.27	27.243
505.62	27.318
505.97	27.248
506.31	27.311
506.66	27.405
507.01	27.370
507.36	27.360
507.70	27.339
508.05	27.351
508.40	27.396
508.74	27.353
509.09	27.381
509.44	27.347
509.79	27.355
510.13	27.269
510.48	27.286
510.83	27.283
511.17	27.245
511.52	27.241
511.87	27.230
512.21	27.223
512.56	27.251
512.91	27.264
513.25	27.278
513.60	27.276
513.95	27.280
514.29	27.307
514.64	27.404
514.98	27.418
515.33	27.450
515.68	27.471
516.02	27.520
516.37	27.525
516.72	27.600
517.06	27.633
517.41	27.652
517.75	27.686
518.10	27.715
518.45	27.690
518.79	27.738
519.14	27.795
519.48	27.757
519.83	27.771
520.18	27.801
520.52	27.848
520.87	27.835
521.21	27.850
521.56	27.890
521.90	27.858
522.25	27.842
522.60	27.870
522.94	27.854
523.29	27.897
523.63	27.872
523.98	27.828
524.32	27.921
524.67	27.805
525.01	27.752
525.36	27.757
525.70	27.750
526.05	27.745
526.39	27.659
526.74	27.654
527.08	27.597
527.43	27.482
527.77	27.477
528.12	27.420
528.46	27.362
528.81	27.256
529.15	27.269
529.50	27.165
529.84	27.110
530.19	26.951
530.53	26.846
530.88	26.754
531.22	26.702
531.57	26.536
531.91	26.464
532.26	26.328
532.60	26.216
532.94	26.090
533.29	25.923
533.63	25.798
533.98	25.581
534.32	25.461
534.67	25.248
535.01	25.115
535.35	24.918
535.70	24.710
536.04	24.578
536.39	24.403
536.73	24.175
537.07	23.920
537.42	23.814
537.76	23.618
538.11	23.408
538.45	23.224
538.79	23.010
539.14	22.796
539.48	22.667
539.82	22.549
540.17	22.314
540.51	22.124
540.85	21.986
541.20	21.812
541.54	21.603
541.89	21.532
542.23	21.402
542.57	21.266
542.92	21.180
543.26	21.071
543.60	20.983
543.94	20.913
544.29	20.856
544.63	20.740
544.97	20.696
545.32	20.693
545.66	20.695
546.00	20.681
546.35	20.682
546.69	20.660
547.03	20.603
547.37	20.685
547.72	20.702
548.06	20.716
548.40	20.756
548.75	20.833
549.09	20.839
549.43	20.924
549.77	21.001
550.12	21.049
550.46	21.172
550.80	21.270
551.14	21.368
551.49	21.328
551.83	21.535
552.17	21.671
552.51	21.800
552.85	21.954
553.20	22.066
553.54	22.281
553.88	22.361
554.22	22.569
554.56	22.745
554.91	23.048
555.25	23.177
555.59	23.317
555.93	23.589
556.27	23.747
556.62	23.936
556.96	24.199
557.30	24.426
557.64	24.581
557.98	24.898
558.32	25.145
558.67	25.342
559.01	25.557
559.35	25.788
559.69	26.026
560.03	26.243
560.37	26.464
560.71	26.772
561.05	26.906
561.40	27.019
561.74	27.263
562.08	27.458
562.42	27.635
562.76	27.887
563.10	28.042
563.44	28.183
563.78	28.294
564.12	28.473
564.46	28.642
564.81	28.764
565.15	28.839
565.49	28.974
565.83	29.103
566.17	29.181
566.51	29.320
566.85	29.425
567.19	29.464
567.53	29.552
567.87	29.615
568.21	29.642
568.55	29.646
568.89	29.665
569.23	29.724
569.57	29.744
569.91	29.763
570.25	29.781
570.59	29.797
570.93	29.692
571.27	29.716
571.61	29.657
571.95	29.626
572.29	29.600
572.63	29.516
572.97	29.446
573.31	29.429
573.65	29.364
573.99	29.168
574.33	29.196
574.67	29.056
575.01	28.931
575.35	28.866
575.69	28.748
576.03	28.667
576.37	28.603
576.71	28.453
577.05	28.313
577.39	28.171
577.73	28.023
578.06	27.868
578.40	27.726
578.74	27.564
579.08	27.348
579.42	27.262
579.76	27.095
580.10	26.927
580.44	26.720
580.78	26.573
581.12	26.397
581.45	26.215
581.79	26.025
582.13	25.801
582.47	25.695
582.81	25.492
583.15	25.313
583.49	25.193
583.83	25.054
584.16	24.831
584.50	24.674
584.84	24.623
585.18	24.402
585.52	24.349
585.86	24.124
586.19	24.050
586.53	23.879
586.87	23.746
587.21	23.629
587.55	23.403
587.88	23.350
588.22	23.174
588.56	23.007
588.90	22.772
589.24	22.644
589.57	22.495
589.91	22.284
590.25	22.118
590.59	21.949
590.92	21.785
591.26	21.544
591.60	21.312
591.94	21.157
592.27	20.929
592.61	20.652
592.95	20.445
593.29	20.243
593.62	19.963
593.96	19.741
594.30	19.411
594.64	19.173
594.97	18.858
595.31	18.465
595.65	18.201
595.98	17.847
596.32	17.487
596.66	17.164
597.00	16.762
597.33	16.323
597.67	15.935
598.01	15.549
598.34	15.170
598.68	14.779
599.02	14.368
599.35	13.975
599.69	13.640
600.03	13.253
600.36	12.917
600.70	12.581
601.03	12.282
601.37	12.009
601.71	11.749
602.04	11.444
602.38	11.175
602.72	10.992
603.05	10.747
603.39	10.511
603.72	10.256
604.06	9.984
604.40	9.791
604.73	9.527
605.07	9.312
605.40	9.087
605.74	8.787
606.08	8.559
606.41	8.307
606.75	8.052
607.08	7.825
607.42	7.583
607.75	7.332
608.09	7.104
608.42	6.863
608.76	6.594
609.10	6.350
609.43	6.127
609.77	5.899
610.10	5.665
610.44	5.417
610.77	5.210
611.11	5.010
611.44	4.761
611.78	4.553
612.11	4.331
612.45	4.163
612.78	3.951
613.12	3.801
613.45	3.622
613.79	3.427
614.12	3.270
614.46	3.103
614.79	2.938
615.13	2.808
615.46	2.668
615.79	2.545
616.13	2.395
616.46	2.307
616.80	2.168
617.13	2.102
617.47	2.016
617.80	1.930
618.13	1.881
618.47	1.779
618.80	1.736
619.14	1.642
619.47	1.589
619.81	1.528
620.14	1.493
620.47	1.433
620.81	1.400
621.14	1.359
621.47	1.302
621.81	1.245
622.14	1.218
622.48	1.173
622.81	1.147
623.14	1.107
623.48	1.103
623.81	1.082
624.14	1.024
624.48	1.013
624.81	1.008
625.14	0.990
625.48	0.979
625.81	0.979
626.14	0.940
626.48	0.943
626.81	0.937
627.14	0.980
627.48	0.964
627.81	0.969
628.14	0.980
628.47	1.002
628.81	0.987
629.14	1.020
629.47	1.066
629.81	1.097
630.14	1.133
630.47	1.165
630.80	1.226
631.14	1.288
631.47	1.325
631.80	1.418
